NW1 Channel 1 Rise @ 5V (EXP51)	
Time (s)	Current (mA)
0.025	48.265
0.054	48.427
0.085	48.572
0.115	48.627
0.145	48.679
0.175	48.771
0.205	48.889
0.236	49.012
0.266	49.055
0.296	49.143
0.326	49.157
0.356	49.181
0.387	49.200
0.417	49.236
0.447	49.256
0.477	49.259
0.507	49.292
0.537	49.329
0.568	49.338
0.598	49.362
0.628	49.381
0.658	49.399
0.688	49.427
0.719	49.441
0.749	49.456
0.779	49.480
0.809	49.485
0.839	49.489
0.870	49.493
0.900	49.507
0.930	49.503
0.960	49.514
0.990	49.523
1.021	49.535
1.051	49.541
1.081	49.550
1.111	49.561
1.141	49.558
1.172	49.563
1.202	49.572
1.232	49.589
1.262	49.599
1.292	49.605
1.322	49.603
1.353	49.619
1.383	49.622
1.413	49.632
1.443	49.642
1.473	49.639
1.504	49.642
1.534	49.653
1.564	49.660
1.594	49.676
1.624	49.690
1.655	49.688
1.685	49.694
1.715	49.696
1.745	49.694
1.775	49.699
1.806	49.701
1.836	49.706
1.866	49.711
1.896	49.718
1.926	49.730
1.957	49.744
1.987	49.757
2.017	49.759
2.047	49.768
2.077	49.775
2.107	49.780
2.138	49.781
2.168	49.778
2.198	49.787
2.228	49.793
2.258	49.792
2.289	49.799
2.319	49.803
2.349	49.808
2.379	49.813
2.409	49.820
2.440	49.832
2.470	49.841
2.500	49.841
2.530	49.854
2.560	49.875
2.591	49.883
2.621	49.884
2.651	49.885
2.681	49.895
2.711	49.905
2.741	49.918
2.772	49.930
2.802	49.928
2.832	49.935
2.862	49.959
2.892	49.962
2.923	49.964
2.953	49.969
2.983	49.973
3.013	49.985
3.043	49.988
3.074	49.997
3.104	50.008
3.134	50.010
3.164	50.011
3.194	50.008
3.224	50.009
3.255	50.015
3.285	50.018
3.315	50.039
3.345	50.048
3.375	50.052
3.406	50.066
3.436	50.068
3.466	50.067
3.496	50.068
3.526	50.073
3.557	50.070
3.587	50.069
3.617	50.071
3.647	50.084
3.677	50.085
3.708	50.085
3.738	50.088
3.768	50.088
3.798	50.089
3.828	50.081
3.859	50.068
3.889	50.065
3.919	50.063
3.949	50.065
3.979	50.076
4.010	50.077
4.040	50.076
4.070	50.081
4.100	50.080
4.130	50.074
4.161	50.077
4.191	50.083
4.221	50.086
4.251	50.091
4.281	50.095
4.312	50.105
4.342	50.114
4.372	50.119
4.402	50.120
4.432	50.121
4.463	50.121
4.493	50.132
4.523	50.136
4.553	50.136
4.583	50.135
4.613	50.130
4.644	50.133
4.674	50.121
4.704	50.055
4.734	50.044
4.764	50.054
4.795	50.062
4.825	50.077
4.855	50.082
4.885	50.086
4.915	50.089
4.946	50.091
4.976	50.094
5.006	50.098
5.036	50.099
5.066	50.103
5.097	50.106
5.127	50.110
5.157	50.115
5.187	50.115
5.217	50.122
5.248	50.124
5.278	50.132
5.308	50.136
5.338	50.139
5.368	50.144
5.399	50.145
5.429	50.151
5.459	50.155
5.489	50.156
5.519	50.156
5.549	50.160
5.580	50.163
5.610	50.162
5.640	50.165
5.670	50.165
5.700	50.164
5.731	50.168
5.761	50.169
5.791	50.167
5.821	50.168
5.851	50.165
5.882	50.168
5.912	50.170
5.942	50.175
5.972	50.174
6.002	50.175
6.032	50.175
6.063	50.173
6.093	50.173
6.123	50.183
6.153	50.188
6.183	50.188
6.214	50.189
6.244	50.190
6.274	50.197
6.304	50.196
6.334	50.199
6.365	50.201
6.395	50.202
6.425	50.203
6.455	50.209
6.485	50.214
6.516	50.217
6.546	50.219
6.576	50.221
6.606	50.222
6.636	50.224
6.666	50.230
6.697	50.233
6.727	50.232
6.757	50.232
6.787	50.231
6.817	50.230
6.848	50.230
6.878	50.230
6.908	50.236
6.938	50.238
6.968	50.242
6.999	50.247
7.029	50.247
7.059	50.246
7.089	50.244
7.119	50.243
7.150	50.243
7.180	50.242
7.210	50.245
7.240	50.245
7.270	50.248
7.300	50.247
7.331	50.250
7.361	50.253
7.391	50.251
7.421	50.250
7.451	50.257
7.482	50.265
7.512	50.271
7.542	50.277
7.572	50.279
7.602	50.278
7.633	50.277
7.663	50.277
7.693	50.278
7.723	50.277
7.753	50.277
7.784	50.276
7.814	50.276
7.844	50.283
7.874	50.284
7.904	50.283
7.935	50.282
7.965	50.281
7.995	50.280
8.025	50.279
8.055	50.278
8.086	50.276
8.116	50.275
8.146	50.275
8.176	50.280
8.206	50.279
8.237	50.277
8.267	50.277
8.297	50.276
8.327	50.278
8.357	50.278
8.388	50.282
8.418	50.283
8.448	50.282
8.478	50.281
8.508	50.279
8.539	50.278
8.569	50.277
8.599	50.277
8.629	50.276
8.659	50.276
8.690	50.278
8.720	50.281
8.750	50.281
8.780	50.280
8.810	50.282
8.841	50.282
8.871	50.287
8.901	50.287
8.931	50.287
8.961	50.293
8.992	50.296
9.022	50.298
9.052	50.302
9.082	50.305
9.112	50.312
9.143	50.314
9.173	50.313
9.203	50.311
9.233	50.311
9.263	50.310
9.293	50.310
9.324	50.307
9.354	50.309
9.384	50.308
9.414	50.308
9.444	50.315
9.475	50.316
9.505	50.315
9.535	50.316
9.565	50.315
9.595	50.314
9.626	50.314
9.656	50.313
9.686	50.313
9.716	50.313
9.746	50.321
9.777	50.328
9.807	50.330
9.837	50.330
9.867	50.329
9.897	50.329
9.928	50.329
9.958	50.330
9.988	50.331
10.018	50.331
10.048	50.331
10.078	50.331
10.109	50.334
10.139	50.336
10.169	50.337
10.199	50.339
10.229	50.340
10.260	50.346
10.290	50.348
10.320	50.350
10.350	50.353
10.380	50.357
10.411	50.359
10.441	50.359
10.471	50.358
10.501	50.359
10.531	50.360
10.561	50.361
10.592	50.366
10.622	50.366
10.652	50.365
10.682	50.364
10.712	50.363
10.743	50.362
10.773	50.362
10.803	50.368
10.833	50.374
10.863	50.380
10.894	50.385
10.924	50.387
10.954	50.389
10.984	50.389
11.014	50.388
11.044	50.390
11.075	50.390
11.105	50.395
11.135	50.395
11.165	50.396
11.195	50.395
11.226	50.394
11.256	50.394
11.286	50.406
11.316	50.412
11.346	50.412
11.377	50.411
11.407	50.413
11.437	50.419
11.467	50.421
11.497	50.423
11.528	50.423
11.558	50.425
11.588	50.425
11.618	50.425
11.648	50.425
11.679	50.424
11.709	50.424
11.739	50.425
11.769	50.424
11.799	50.426
11.829	50.426
11.860	50.424
11.890	50.425
11.920	50.427
11.950	50.429
11.980	50.431
12.011	50.432
12.041	50.431
12.071	50.430
12.101	50.429
12.131	50.429
12.162	50.429
12.192	50.436
12.222	50.439
12.252	50.438
12.282	50.438
12.312	50.437
12.343	50.437
12.373	50.439
12.403	50.438
12.433	50.440
12.463	50.440
12.494	50.440
12.524	50.440
12.554	50.441
12.584	50.443
12.614	50.442
12.645	50.440
12.675	50.445
12.705	50.445
12.735	50.450
12.765	50.454
12.795	50.461
12.826	50.461
12.856	50.462
12.886	50.465
12.916	50.468
12.947	50.474
12.977	50.478
13.007	50.483
13.037	50.488
13.067	50.489
13.098	50.489
13.128	50.491
13.158	50.491
13.188	50.492
13.218	50.493
13.248	50.494
13.279	50.498
13.309	50.502
13.339	50.502
13.369	50.505
13.400	50.505
13.430	50.505
13.460	50.505
13.490	50.504
13.520	50.504
13.551	50.503
13.581	50.503
13.611	50.502
13.641	50.502
13.671	50.502
13.702	50.502
13.732	50.500
13.762	50.505
13.792	50.510
13.822	50.517
13.852	50.520
13.883	50.520
13.913	50.523
13.943	50.524
13.973	50.526
14.003	50.526
14.034	50.528
14.064	50.529
14.094	50.528
14.124	50.529
14.154	50.532
14.185	50.533
14.215	50.536
14.245	50.537
14.275	50.538
14.305	50.542
14.335	50.541
14.366	50.563
14.396	50.566
14.426	50.575
14.456	50.577
14.486	50.580
14.517	50.579
14.547	50.580
14.577	50.579
14.607	50.580
14.637	50.580
14.668	50.580
14.698	50.581
14.728	50.581
14.758	50.581
14.788	50.581
14.819	50.580
14.849	50.581
14.879	50.583
14.909	50.583
14.939	50.583
14.969	50.583
15.000	50.584
15.030	50.584
15.060	50.583
15.090	50.588
15.120	50.588
15.151	50.589
15.181	50.590
15.211	50.592
15.241	50.599
15.271	50.601
15.302	50.605
15.332	50.605
15.362	50.605
15.392	50.607
15.422	50.616
15.452	50.616
15.483	50.616
15.513	50.616
15.543	50.618
15.573	50.623
15.603	50.625
15.634	50.625
15.664	50.624
15.694	50.626
15.724	50.627
15.754	50.636
15.785	50.636
15.815	50.637
15.845	50.636
15.875	50.635
15.905	50.635
15.935	50.636
15.966	50.642
15.996	50.642
16.026	50.643
16.056	50.645
16.086	50.645
16.117	50.646
16.147	50.650
16.177	50.651
16.207	50.651
16.237	50.651
16.268	50.654
16.298	50.655
16.328	50.656
16.358	50.656
16.388	50.657
16.419	50.657
16.449	50.658
16.479	50.659
16.509	50.659
16.539	50.668
16.570	50.669
16.600	50.671
16.630	50.671
16.660	50.670
16.690	50.670
16.721	50.671
16.751	50.670
16.781	50.670
16.811	50.670
16.841	50.671
16.872	50.678
16.902	50.679
16.932	50.679
16.962	50.682
16.992	50.684
17.023	50.684
17.053	50.684
17.083	50.683
17.113	50.685
17.143	50.688
17.174	50.689
17.204	50.691
17.234	50.691
17.264	50.690
17.294	50.691
17.325	50.691
17.355	50.691
17.385	50.692
17.415	50.694
17.445	50.695
17.476	50.697
17.506	50.696
17.536	50.699
17.566	50.699
17.596	50.700
17.627	50.702
17.657	50.702
17.687	50.715
17.717	50.720
17.747	50.720
17.778	50.725
17.808	50.725
17.838	50.724
17.868	50.724
17.898	50.723
17.928	50.724
17.959	50.724
17.989	50.725
18.019	50.725
18.049	50.728
18.079	50.727
18.110	50.728
18.140	50.729
18.170	50.732
18.200	50.732
18.230	50.733
18.261	50.732
18.291	50.733
18.321	50.733
18.351	50.733
18.381	50.734
18.412	50.734
18.442	50.734
18.472	50.734
18.502	50.734
18.532	50.735
18.563	50.736
18.593	50.738
18.623	50.738
18.653	50.739
18.683	50.739
18.713	50.740
18.744	50.743
18.774	50.744
18.804	50.744
18.834	50.745
18.864	50.748
18.895	50.749
18.925	50.751
18.955	50.751
18.985	50.750
19.015	50.751
19.046	50.752
19.076	50.752
19.106	50.752
19.136	50.753
19.166	50.755
19.196	50.755
19.227	50.755
19.257	50.755
19.287	50.755
19.317	50.756
19.347	50.756
19.378	50.756
19.408	50.758
19.438	50.759
19.468	50.762
19.498	50.762
19.529	50.762
19.559	50.761
19.589	50.761
19.619	50.761
19.649	50.762
19.679	50.762
19.710	50.766
19.740	50.766
19.770	50.768
19.800	50.768
19.830	50.767
19.861	50.769
19.891	50.769
19.921	50.770
19.951	50.773
19.981	50.773
20.012	50.777
20.042	50.777
20.072	50.777
20.102	50.777
20.132	50.778
20.162	50.779
20.193	50.784
20.223	50.784
20.253	50.783
20.283	50.783
20.314	50.783
20.344	50.782
20.374	50.783
20.404	50.783
20.434	50.784
20.464	50.785
20.495	50.785
20.525	50.785
20.555	50.786
20.585	50.786
20.615	50.786
20.646	50.787
20.676	50.787
20.706	50.787
20.736	50.788
20.766	50.789
20.797	50.788
20.827	50.788
20.857	50.788
20.887	50.788
20.917	50.790
20.947	50.791
20.978	50.791
21.008	50.791
21.038	50.797
21.068	50.866
21.098	50.870
21.129	50.870
21.159	50.871
21.189	50.873
21.219	50.874
21.249	50.873
21.280	50.873
21.310	50.875
21.340	50.878
21.370	50.879
21.400	50.881
21.431	50.883
21.461	50.883
21.491	50.883
21.521	50.881
21.551	50.882
21.582	50.882
21.612	50.889
21.642	50.890
21.672	50.890
21.702	50.890
21.733	50.891
21.763	50.892
21.793	50.891
21.823	50.892
21.853	50.892
21.884	50.891
21.914	50.891
21.944	50.892
21.974	50.891
22.004	50.891
22.035	50.890
22.065	50.890
22.095	50.892
22.125	50.893
22.155	50.893
22.186	50.895
22.216	50.895
22.246	50.896
22.276	50.897
22.306	50.897
22.337	50.897
22.367	50.897
22.397	50.897
22.427	50.897
22.457	50.897
22.488	50.897
22.518	50.897
22.548	50.897
22.578	50.897
22.608	50.897
22.639	50.897
22.669	50.897
22.699	50.902
22.729	50.904
22.760	50.905
22.790	50.905
22.820	50.905
22.850	50.905
22.880	50.905
22.910	50.905
22.941	50.906
22.971	50.907
23.001	50.907
23.031	50.908
23.061	50.908
23.092	50.908
23.122	50.908
23.152	50.908
23.182	50.908
23.212	50.908
23.243	50.911
23.273	50.911
23.303	50.911
23.333	50.911
23.363	50.911
23.393	50.911
23.424	50.911
23.454	50.910
23.484	50.910
23.514	50.910
23.544	50.909
23.575	50.910
23.605	50.911
23.635	50.910
23.665	50.911
23.695	50.910
23.726	50.911
23.756	50.914
23.786	50.914
23.816	50.914
23.846	50.914
23.876	50.914
23.907	50.914
23.937	50.916
23.967	50.918
23.997	50.918
24.027	50.919
24.058	50.920
24.088	50.921
24.118	50.921
24.148	50.922
24.178	50.923
24.209	50.922
24.239	50.922
24.269	50.922
24.299	50.923
24.329	50.924
24.360	50.924
24.390	50.928
24.420	50.928
24.450	50.927
24.480	50.927
24.510	50.927
24.541	50.927
24.571	50.927
24.601	50.926
24.631	50.926
24.661	50.926
24.692	50.926
24.722	50.926
24.752	50.926
24.782	50.926
24.812	50.925
24.843	50.926
24.873	50.925
24.903	50.927
24.933	50.927
24.963	50.927
24.993	50.929
25.024	50.930
25.054	50.930
25.084	50.930
25.114	50.930
25.144	50.931
25.175	50.933
25.205	50.933
25.235	50.933
25.265	50.937
25.295	50.938
25.326	50.938
25.356	50.940
25.386	50.943
25.416	50.943
25.446	50.943
25.476	50.943
25.507	50.942
25.537	50.942
25.567	50.942
25.597	50.942
25.627	50.941
25.658	50.943
25.688	50.944
25.718	50.944
25.748	50.944
25.778	50.943
25.809	50.943
25.839	50.943
25.869	50.940
25.899	50.941
25.929	50.940
25.959	50.940
25.990	50.940
26.020	50.941
26.050	50.941
26.080	50.941
26.110	50.943
26.141	50.943
26.171	50.944
26.201	50.944
26.231	50.945
26.261	50.945
26.292	50.946
26.322	50.946
26.352	50.946
26.382	50.946
26.412	50.946
26.443	50.947
26.473	50.947
26.503	50.947
26.533	50.949
26.563	50.949
26.593	50.948
26.624	50.951
26.654	50.952
26.684	50.954
26.714	50.956
26.744	50.956
26.775	50.957
26.805	50.960
26.835	50.960
26.865	50.960
26.895	50.960
26.926	50.961
26.956	50.960
26.986	50.961
27.016	50.961
27.046	50.961
27.077	50.961
27.107	50.961
27.137	50.958
27.167	50.959
27.197	50.977
27.228	50.980
27.258	50.982
27.288	50.982
27.318	50.983
27.348	50.985
27.378	50.988
27.409	50.988
27.439	50.990
27.469	50.991
27.499	50.992
27.529	50.992
27.560	50.993
27.590	50.992
27.620	50.992
27.650	50.992
27.680	50.992
27.711	50.992
27.741	50.991
27.771	50.992
27.801	50.991
27.831	50.991
27.861	50.991
27.892	50.993
27.922	50.995
27.952	50.995
27.982	50.995
28.012	50.995
28.043	50.994
28.073	50.995
28.103	50.995
28.133	50.995
28.163	50.995
28.194	50.995
28.224	50.995
28.254	50.995
28.284	50.999
28.314	50.999
28.345	50.999
28.375	51.001
28.405	51.002
28.435	51.002
28.465	51.001
28.495	51.007
28.526	51.007
28.556	51.009
28.586	51.011
28.616	51.011
28.646	51.012
28.677	51.017
28.707	51.018
28.737	51.019
28.767	51.019
28.797	51.019
28.828	51.022
28.858	51.023
28.888	51.023
28.918	51.024
28.948	51.024
28.978	51.024
29.009	51.024
29.039	51.026
29.069	51.026
29.099	51.026
29.129	51.028
29.160	51.028
29.190	51.028
29.220	51.028
29.250	51.028
29.280	51.031
29.311	51.037
29.341	51.038
29.371	51.038
29.401	51.039
29.431	51.039
29.461	51.039
29.492	51.038
29.522	51.038
29.552	51.039
29.582	51.041
29.612	51.047
29.643	51.052
29.673	51.052
29.703	51.052
29.733	51.051
29.763	51.051
29.794	51.051
29.824	51.051
29.854	51.051
29.884	51.051
29.914	51.051
29.945	51.052
29.975	51.059
30.005	51.059
30.035	51.060
30.065	51.059
30.096	51.061
30.126	51.062
30.156	51.062
30.186	51.062
30.216	51.063
30.247	51.064
30.277	51.063
30.307	51.063
30.337	51.064
30.367	51.063
30.398	51.063
30.428	51.065
30.458	51.067
30.488	51.069
30.518	51.069
30.549	51.069
30.579	51.068
30.609	51.068
30.639	51.068
30.669	51.069
30.700	51.069
30.730	51.069
30.760	51.070
30.790	51.070
30.820	51.069
30.851	51.069
30.881	51.070
30.911	51.070
30.941	51.070
30.971	51.070
31.002	51.070
31.032	51.070
31.062	51.070
31.092	51.070
31.122	51.070
31.153	51.069
31.183	51.069
31.213	51.070
31.243	51.070
31.273	51.070
31.304	51.069
31.334	51.069
31.364	51.070
31.394	51.070
31.424	51.070
31.455	51.072
31.485	51.075
31.515	51.084
31.545	51.084
31.575	51.085
31.606	51.086
31.636	51.086
31.666	51.087
31.696	51.088
31.726	51.089
31.757	51.090
31.787	51.091
31.817	51.094
31.847	51.096
31.877	51.098
31.908	51.101
31.938	51.102
31.968	51.101
31.998	51.101
32.028	51.103
32.059	51.103
32.089	51.103
32.119	51.103
32.149	51.103
32.179	51.103
32.210	51.109
32.240	51.109
32.270	51.109
32.300	51.109
32.330	51.109
32.360	51.109
32.391	51.109
32.421	51.108
32.451	51.108
32.481	51.108
32.511	51.108
32.542	51.107
32.572	51.107
32.602	51.106
32.632	51.109
32.662	51.111
32.693	51.111
32.723	51.111
32.753	51.111
32.783	51.111
32.813	51.111
32.843	51.110
32.874	51.110
32.904	51.110
32.934	51.113
32.964	51.113
32.994	51.115
33.025	51.117
33.055	51.117
33.085	51.118
33.115	51.118
33.145	51.118
33.176	51.117
33.206	51.118
33.236	51.120
33.266	51.120
33.296	51.120
33.326	51.120
33.357	51.124
33.387	51.128
33.417	51.130
33.447	51.132
33.477	51.134
33.508	51.135
33.538	51.135
33.568	51.135
33.598	51.136
33.628	51.136
33.658	51.139
33.689	51.140
33.719	51.140
33.749	51.140
33.779	51.141
33.809	51.141
33.840	51.140
33.870	51.147
33.900	51.148
33.930	51.151
33.960	51.153
33.991	51.154
34.021	51.154
34.051	51.156
34.081	51.155
34.111	51.155
34.141	51.156
34.172	51.155
34.202	51.156
34.232	51.156
34.262	51.157
34.292	51.159
34.323	51.159
34.353	51.158
34.383	51.160
34.413	51.165
34.443	51.166
34.474	51.171
34.504	51.172
34.534	51.175
34.564	51.176
34.594	51.177
34.625	51.179
34.655	51.178
34.685	51.180
34.715	51.180
34.745	51.180
34.775	51.180
34.806	51.180
34.836	51.180
34.866	51.179
34.896	51.179
34.926	51.180
34.957	51.180
34.987	51.180
35.017	51.180
35.047	51.180
35.077	51.180
35.108	51.180
35.138	51.180
35.168	51.182
35.198	51.181
35.228	51.183
35.258	51.183
35.289	51.183
35.319	51.183
35.349	51.184
35.379	51.186
35.409	51.187
35.440	51.189
35.470	51.189
35.500	51.189
35.530	51.192
35.560	51.195
35.591	51.196
35.621	51.198
35.651	51.199
35.681	51.199
35.711	51.200
35.741	51.202
35.772	51.203
35.802	51.208
35.832	51.209
35.862	51.208
35.892	51.208
35.923	51.209
35.953	51.209
35.983	51.208
36.013	51.208
36.043	51.209
36.074	51.209
36.104	51.210
36.134	51.210
36.164	51.213
36.194	51.215
36.224	51.215
36.255	51.215
36.285	51.216
36.315	51.216
36.345	51.216
36.375	51.216
36.406	51.216
36.436	51.217
36.466	51.217
36.496	51.218
36.526	51.219
36.557	51.220
36.587	51.221
36.617	51.221
36.647	51.221
36.677	51.221
36.707	51.222
36.738	51.223
36.768	51.223
36.798	51.222
36.828	51.222
36.858	51.224
36.889	51.225
36.919	51.225
36.949	51.225
36.979	51.225
37.009	51.224
37.040	51.224
37.070	51.224
37.100	51.224
37.130	51.224
37.160	51.224
37.191	51.224
37.221	51.225
37.251	51.225
37.281	51.226
37.311	51.226
37.342	51.225
37.372	51.227
37.402	51.228
37.432	51.229
37.462	51.234
37.492	51.237
37.523	51.241
37.553	51.241
37.583	51.241
37.613	51.242
37.643	51.242
37.674	51.242
37.704	51.243
37.734	51.243
37.764	51.242
37.794	51.244
37.825	51.246
37.855	51.251
37.885	51.253
37.915	51.257
37.945	51.260
37.976	51.260
38.006	51.261
38.036	51.261
38.066	51.261
38.096	51.262
38.127	51.262
38.157	51.263
38.187	51.263
38.217	51.263
38.247	51.269
38.278	51.270
38.308	51.270
38.338	51.271
38.368	51.271
38.398	51.271
38.429	51.272
38.459	51.271
38.489	51.273
38.519	51.274
38.549	51.275
38.580	51.276
38.610	51.279
38.640	51.278
38.670	51.279
38.700	51.279
38.731	51.281
38.761	51.281
38.791	51.281
38.821	51.281
38.851	51.281
38.882	51.281
38.912	51.281
38.942	51.281
38.972	51.281
39.002	51.281
39.033	51.281
39.063	51.281
39.093	51.281
39.123	51.281
39.153	51.282
39.184	51.282
39.214	51.282
39.244	51.281
39.274	51.281
39.304	51.281
39.335	51.284
39.365	51.285
39.395	51.290
39.425	51.290
39.455	51.289
39.486	51.289
39.516	51.288
39.546	51.290
39.576	51.293
39.606	51.293
39.637	51.293
39.667	51.294
39.697	51.295
39.727	51.295
39.757	51.295
39.788	51.295
39.818	51.295
39.848	51.295
39.878	51.295
39.908	51.294
39.938	51.296
39.969	51.297
39.999	51.298
40.029	51.298
40.059	51.299
40.089	51.298
40.120	51.299
40.150	51.299
40.180	51.299
40.210	51.303
40.240	51.304
40.271	51.304
40.301	51.303
40.331	51.304
40.361	51.304
40.391	51.304
40.421	51.304
40.452	51.305
40.482	51.304
40.512	51.304
40.542	51.304
40.572	51.303
40.603	51.304
40.633	51.304
40.663	51.305
40.693	51.305
40.723	51.305
40.754	51.305
40.784	51.306
40.814	51.306
40.844	51.307
40.874	51.307
40.904	51.307
40.935	51.306
40.965	51.306
40.995	51.306
41.025	51.307
41.055	51.309
41.086	51.310
41.116	51.314
41.146	51.316
41.176	51.317
41.206	51.317
41.237	51.317
41.267	51.317
41.297	51.317
41.327	51.316
41.357	51.318
41.387	51.320
41.418	51.320
41.448	51.320
41.478	51.320
41.508	51.319
41.538	51.319
41.569	51.320
41.599	51.320
41.629	51.326
41.659	51.328
41.689	51.328
41.720	51.328
41.750	51.328
41.780	51.328
41.810	51.328
41.840	51.328
41.870	51.328
41.901	51.328
41.931	51.328
41.961	51.328
41.991	51.330
42.021	51.331
42.052	51.331
42.082	51.331
42.112	51.329
42.142	51.330
42.172	51.331
42.203	51.332
42.233	51.336
42.263	51.336
42.293	51.337
42.323	51.337
42.354	51.340
42.384	51.340
42.414	51.343
42.444	51.357
42.474	51.359
42.505	51.362
42.535	51.363
42.565	51.364
42.595	51.366
42.625	51.366
42.655	51.367
42.686	51.368
42.716	51.371
42.746	51.372
42.776	51.372
42.806	51.373
42.837	51.375
42.867	51.375
42.897	51.375
42.927	51.376
42.957	51.375
42.987	51.376
43.018	51.376
43.048	51.376
43.078	51.376
43.108	51.376
43.138	51.376
43.169	51.376
43.199	51.376
43.229	51.376
43.259	51.376
43.289	51.376
43.320	51.376
43.350	51.377
43.380	51.377
43.410	51.376
43.440	51.376
43.470	51.379
43.501	51.379
43.531	51.378
43.561	51.378
43.591	51.379
43.621	51.379
43.652	51.379
43.682	51.379
43.712	51.379
43.742	51.382
43.772	51.383
43.803	51.386
43.833	51.387
43.863	51.387
43.893	51.388
43.923	51.389
43.953	51.389
43.984	51.389
44.014	51.390
44.044	51.390
44.074	51.390
44.104	51.390
44.135	51.390
44.165	51.390
44.195	51.390
44.225	51.390
44.255	51.390
44.286	51.390
44.316	51.390
44.346	51.391
44.376	51.394
44.406	51.394
44.437	51.394
44.467	51.394
44.497	51.394
44.527	51.394
44.557	51.394
44.587	51.394
44.618	51.395
44.648	51.396
44.678	51.396
44.708	51.396
44.738	51.397
44.769	51.397
44.799	51.396
44.829	51.397
44.859	51.398
44.889	51.397
44.919	51.399
44.950	51.399
44.980	51.401
45.010	51.401
45.040	51.403
45.070	51.404
45.101	51.404
45.131	51.404
45.161	51.404
45.191	51.405
45.221	51.408
45.252	51.409
45.282	51.410
45.312	51.410
45.342	51.411
45.372	51.411
45.402	51.411
45.433	51.411
45.463	51.410
45.493	51.410
45.523	51.411
45.553	51.413
45.584	51.414
45.614	51.413
45.644	51.413
45.674	51.413
45.704	51.414
45.735	51.414
45.765	51.414
45.795	51.415
45.825	51.416
45.855	51.416
45.886	51.416
45.916	51.416
45.946	51.416
45.976	51.416
46.006	51.416
46.036	51.418
46.067	51.418
46.097	51.418
46.127	51.417
46.157	51.417
46.187	51.419
46.218	51.419
46.248	51.419
46.278	51.419
46.308	51.419
46.338	51.419
46.369	51.419
46.399	51.420
46.429	51.420
46.459	51.420
46.489	51.420
46.519	51.420
46.550	51.420
46.580	51.420
46.610	51.421
46.640	51.420
46.670	51.420
46.701	51.420
46.731	51.420
46.761	51.420
46.791	51.420
46.821	51.420
46.852	51.421
46.882	51.421
46.912	51.421
46.942	51.421
46.972	51.420
47.002	51.420
47.033	51.420
47.063	51.420
47.093	51.420
47.123	51.420
47.153	51.420
47.184	51.420
47.214	51.420
47.244	51.420
47.274	51.422
47.304	51.426
47.335	51.427
47.365	51.428
47.395	51.429
47.425	51.429
47.455	51.429
47.485	51.429
47.516	51.429
47.546	51.429
47.576	51.429
47.606	51.430
47.636	51.430
47.667	51.433
47.697	51.435
47.727	51.435
47.757	51.436
47.787	51.437
47.818	51.437
47.848	51.438
47.878	51.440
47.908	51.441
47.938	51.442
47.969	51.443
47.999	51.446
48.029	51.451
48.059	51.451
48.089	51.452
48.120	51.452
48.150	51.453
48.180	51.452
48.210	51.453
48.240	51.453
48.271	51.454
48.301	51.454
48.331	51.454
48.361	51.454
48.391	51.454
48.422	51.454
48.452	51.454
48.482	51.454
48.512	51.454
48.542	51.454
48.573	51.454
48.603	51.455
48.633	51.456
48.663	51.457
48.693	51.458
48.724	51.457
48.754	51.460
48.784	51.460
48.814	51.460
48.844	51.460
48.875	51.461
48.905	51.460
48.935	51.460
48.965	51.460
48.995	51.460
49.026	51.460
49.056	51.461
49.086	51.461
49.116	51.461
49.146	51.461
49.177	51.461
49.207	51.461
49.237	51.461
49.267	51.461
49.297	51.462
49.328	51.464
49.358	51.464
49.388	51.464
49.418	51.464
49.448	51.464
49.479	51.464
49.509	51.464
49.539	51.464
49.569	51.464
49.599	51.465
49.630	51.467
49.660	51.469
49.690	51.469
49.720	51.469
49.750	51.469
49.781	51.469
49.811	51.469
49.841	51.469
49.871	51.469
49.901	51.469
49.932	51.469
49.962	51.468
49.992	51.468
50.022	51.468
50.052	51.468
50.083	51.468
50.113	51.468
50.143	51.468
50.173	51.470
50.203	51.470
50.233	51.470
50.264	51.468
50.294	51.467
50.324	51.468
50.354	51.468
50.384	51.468
50.415	51.467
50.445	51.467
50.475	51.467
50.505	51.468
50.535	51.471
50.566	51.471
50.596	51.471
50.626	51.471
50.656	51.471
50.686	51.471
50.717	51.471
50.747	51.471
50.777	51.471
50.807	51.471
50.837	51.470
50.868	51.473
50.898	51.474
50.928	51.474
50.958	51.474
50.989	51.474
51.019	51.474
51.049	51.475
51.079	51.478
51.109	51.478
51.140	51.478
51.170	51.478
51.200	51.479
51.230	51.479
51.260	51.479
51.290	51.479
51.321	51.479
51.351	51.479
51.381	51.479
51.411	51.479
51.442	51.479
51.472	51.480
51.502	51.481
51.532	51.483
51.562	51.484
51.593	51.484
51.623	51.484
51.653	51.484
51.683	51.484
51.713	51.485
51.744	51.485
51.774	51.485
51.804	51.487
51.834	51.488
51.864	51.488
51.895	51.489
51.925	51.490
51.955	51.493
51.985	51.493
52.015	51.494
52.046	51.493
52.076	51.493
52.106	51.493
52.136	51.493
52.166	51.494
52.196	51.494
52.227	51.494
52.257	51.496
52.287	51.496
52.317	51.496
52.347	51.496
52.378	51.496
52.408	51.496
52.438	51.496
52.468	51.496
52.498	51.496
52.529	51.496
52.559	51.496
52.589	51.498
52.619	51.498
52.649	51.498
52.679	51.499
52.710	51.500
52.740	51.501
52.770	51.502
52.800	51.502
52.830	51.503
52.861	51.504
52.891	51.504
52.921	51.504
52.951	51.505
52.981	51.505
53.012	51.504
53.042	51.507
53.072	51.507
53.102	51.507
53.132	51.507
53.162	51.508
53.193	51.510
53.223	51.510
53.253	51.509
53.283	51.512
53.313	51.512
53.344	51.512
53.374	51.512
53.404	51.515
53.434	51.516
53.464	51.517
53.495	51.522
53.525	51.522
53.555	51.522
53.585	51.522
53.615	51.523
53.645	51.524
53.676	51.525
53.706	51.524
53.736	51.525
53.766	51.525
53.796	51.525
53.827	51.525
53.857	51.527
53.887	51.529
53.917	51.529
53.947	51.529
53.978	51.529
54.008	51.529
54.038	51.530
54.068	51.530
54.098	51.530
54.128	51.530
54.159	51.531
54.189	51.531
54.219	51.531
54.249	51.531
54.279	51.532
54.310	51.532
54.340	51.532
54.370	51.534
54.400	51.534
54.430	51.534
54.461	51.533
54.491	51.532
54.521	51.533
54.551	51.534
54.581	51.534
54.611	51.535
54.642	51.535
54.672	51.536
54.702	51.537
54.732	51.537
54.762	51.537
54.793	51.538
54.823	51.538
54.853	51.543
54.883	51.544
54.913	51.544
54.944	51.544
54.974	51.545
55.004	51.544
55.034	51.544
55.064	51.545
55.095	51.545
55.125	51.545
55.155	51.545
55.185	51.545
55.215	51.546
55.245	51.546
55.276	51.547
55.306	51.546
55.336	51.549
55.366	51.549
55.396	51.552
55.427	51.553
55.457	51.553
55.487	51.553
55.517	51.553
55.547	51.553
55.577	51.553
55.608	51.552
55.638	51.552
55.668	51.552
55.698	51.552
55.728	51.552
55.759	51.553
55.789	51.555
55.819	51.556
55.849	51.556
55.879	51.553
55.910	51.559
55.940	51.559
55.970	51.560
56.000	51.560
56.030	51.560
56.060	51.560
56.091	51.560
56.121	51.560
56.151	51.560
56.181	51.568
56.211	51.569
56.242	51.569
56.272	51.569
56.302	51.569
56.332	51.569
56.362	51.569
56.392	51.569
56.423	51.569
56.453	51.569
56.483	51.569
56.513	51.569
56.543	51.569
56.574	51.569
56.604	51.571
56.634	51.570
56.664	51.571
56.694	51.571
56.725	51.574
56.755	51.575
56.785	51.575
56.815	51.575
56.845	51.575
56.876	51.575
56.906	51.575
56.936	51.575
56.966	51.575
56.996	51.575
57.026	51.574
57.057	51.576
57.087	51.576
57.117	51.576
57.147	51.576
57.177	51.576
57.208	51.576
57.238	51.576
57.268	51.578
57.298	51.577
57.328	51.577
57.359	51.577
57.389	51.577
57.419	51.577
57.449	51.577
57.479	51.577
57.509	51.577
57.540	51.577
57.570	51.578
57.600	51.578
57.630	51.577
57.660	51.578
57.691	51.578
57.721	51.578
57.751	51.579
57.781	51.579
57.811	51.579
57.842	51.579
57.872	51.579
57.902	51.579
57.932	51.579
57.962	51.582
57.992	51.585
58.023	51.587
58.053	51.587
58.083	51.587
58.113	51.587
58.143	51.588
58.174	51.588
58.204	51.588
58.234	51.590
58.264	51.591
58.294	51.591
58.325	51.592
58.355	51.598
58.385	51.599
58.415	51.599
58.445	51.600
58.475	51.600
58.506	51.600
58.536	51.601
58.566	51.601
58.596	51.601
58.626	51.601
58.657	51.601
58.687	51.602
58.717	51.602
58.747	51.602
58.777	51.603
58.808	51.604
58.838	51.604
58.868	51.608
58.898	51.608
58.928	51.608
58.958	51.608
58.989	51.608
59.019	51.608
59.049	51.608
59.079	51.608
59.109	51.609
59.140	51.610
59.170	51.610
59.200	51.610
59.230	51.611
59.260	51.612
59.291	51.613
59.321	51.613
59.351	51.614
59.381	51.614
59.411	51.614
59.441	51.614
59.472	51.614
59.502	51.615
59.532	51.618
59.562	51.619
59.592	51.619
59.623	51.620
59.653	51.626
59.683	51.628
59.713	51.628
59.743	51.628
59.774	51.628
59.804	51.628
59.834	51.629
59.864	51.629
59.894	51.629
59.924	51.629
59.955	51.629
59.985	51.629
60.015	51.629
60.045	51.629
60.075	51.629
60.106	51.629
60.136	51.629
60.166	51.631
60.196	51.633
60.226	51.634
60.257	51.634
60.287	51.634
60.317	51.634
60.347	51.635
60.377	51.635
60.408	51.635
60.438	51.635
60.468	51.635
60.498	51.635
60.528	51.635
60.559	51.635
60.589	51.635
60.619	51.635
60.649	51.635
60.679	51.635
60.710	51.635
60.740	51.635
60.770	51.635
60.800	51.638
60.830	51.644
60.861	51.645
60.891	51.645
60.921	51.645
60.951	51.647
60.981	51.647
61.012	51.647
61.042	51.646
61.072	51.646
61.102	51.647
61.132	51.647
61.163	51.649
61.193	51.649
61.223	51.649
61.253	51.649
61.283	51.649
61.313	51.649
61.344	51.649
61.374	51.649
61.404	51.649
61.434	51.649
61.465	51.649
61.495	51.649
61.525	51.649
61.555	51.649
61.585	51.649
61.616	51.649
61.646	51.649
61.676	51.650
61.706	51.650
61.736	51.650
61.767	51.649
61.797	51.649
61.827	51.649
61.857	51.649
61.887	51.649
61.918	51.649
61.948	51.649
61.978	51.649
62.008	51.651
62.038	51.650
62.069	51.650
62.099	51.652
62.129	51.652
62.159	51.652
62.189	51.652
62.220	51.652
62.250	51.652
62.280	51.653
62.310	51.654
62.340	51.654
62.370	51.654
62.401	51.654
62.431	51.655
62.461	51.656
62.491	51.657
62.521	51.657
62.552	51.657
62.582	51.657
62.612	51.658
62.642	51.659
62.672	51.659
62.703	51.659
62.733	51.659
62.763	51.660
62.793	51.661
62.823	51.661
62.854	51.661
62.884	51.661
62.914	51.661
62.944	51.661
62.974	51.661
63.005	51.661
63.035	51.661
63.065	51.661
63.095	51.661
63.125	51.661
63.156	51.661
63.186	51.661
63.216	51.661
63.246	51.661
63.276	51.661
63.307	51.663
63.337	51.665
63.367	51.666
63.397	51.667
63.427	51.667
63.458	51.667
63.488	51.667
63.518	51.667
63.548	51.668
63.578	51.669
63.609	51.668
63.639	51.668
63.669	51.668
63.699	51.667
63.729	51.666
63.760	51.668
63.790	51.668
63.820	51.668
63.850	51.674
63.880	51.677
63.911	51.677
63.941	51.678
63.971	51.678
64.001	51.679
64.031	51.679
64.062	51.680
64.092	51.681
64.122	51.681
64.152	51.681
64.182	51.684
64.213	51.684
64.243	51.684
64.273	51.683
64.303	51.683
64.333	51.683
64.364	51.683
64.394	51.684
64.424	51.683
64.454	51.684
64.484	51.684
64.515	51.685
64.545	51.684
64.575	51.683
64.605	51.675
64.635	51.660
64.665	51.630
64.696	51.630
64.726	51.630
64.756	51.630
64.786	51.630
64.816	51.631
64.847	51.631
64.877	51.631
64.907	51.631
64.937	51.631
64.967	51.632
64.998	51.631
65.028	51.632
65.058	51.632
65.088	51.633
65.118	51.634
65.149	51.634
65.179	51.634
65.209	51.634
65.239	51.635
65.269	51.635
65.300	51.636
65.330	51.638
65.360	51.638
65.390	51.639
65.420	51.639
65.451	51.640
65.481	51.640
65.511	51.640
65.541	51.640
65.571	51.640
65.602	51.640
65.632	51.641
65.662	51.641
65.692	51.640
65.722	51.641
65.753	51.641
65.783	51.642
65.813	51.642
65.843	51.642
65.873	51.642
65.904	51.643
65.934	51.643
65.964	51.643
65.994	51.643
66.024	51.643
66.055	51.643
66.085	51.645
66.115	51.646
66.145	51.647
66.175	51.647
66.206	51.648
66.236	51.648
66.266	51.648
66.296	51.648
66.326	51.648
66.357	51.648
66.387	51.651
66.417	51.652
66.447	51.652
66.477	51.652
66.508	51.652
66.538	51.652
66.568	51.652
66.598	51.653
66.628	51.653
66.658	51.653
66.689	51.654
66.719	51.655
66.749	51.655
66.779	51.655
66.809	51.656
66.840	51.656
66.870	51.656
66.900	51.658
66.930	51.658
66.960	51.658
66.991	51.658
67.021	51.658
67.051	51.659
67.081	51.661
67.111	51.660
67.142	51.660
67.172	51.660
67.202	51.659
67.232	51.659
67.262	51.659
67.293	51.660
67.323	51.660
67.353	51.659
67.383	51.660
67.413	51.662
67.444	51.663
67.474	51.665
67.504	51.666
67.534	51.666
67.564	51.667
67.595	51.668
67.625	51.669
67.655	51.669
67.685	51.670
67.715	51.670
67.746	51.672
67.776	51.672
67.806	51.672
67.836	51.672
67.866	51.673
67.897	51.673
67.927	51.672
67.957	51.672
67.987	51.673
68.017	51.673
68.048	51.673
68.078	51.673
68.108	51.673
68.138	51.673
68.168	51.674
68.198	51.675
68.229	51.676
68.259	51.676
68.289	51.676
68.319	51.677
68.349	51.678
68.380	51.680
68.410	51.680
68.440	51.681
68.470	51.681
68.500	51.682
68.531	51.682
68.561	51.682
68.591	51.684
68.621	51.684
68.651	51.684
68.682	51.684
68.712	51.684
68.742	51.684
68.772	51.685
68.802	51.684
68.833	51.690
68.863	51.691
68.893	51.691
68.923	51.691
68.953	51.691
68.984	51.691
69.014	51.690
69.044	51.690
69.074	51.691
69.104	51.691
69.134	51.692
69.165	51.692
69.195	51.692
69.225	51.692
69.255	51.692
69.285	51.692
69.316	51.692
69.346	51.693
69.376	51.693
69.406	51.693
69.436	51.693
69.466	51.693
69.497	51.693
69.527	51.693
69.557	51.694
69.587	51.694
69.617	51.694
69.648	51.694
69.678	51.694
69.708	51.694
69.738	51.694
69.768	51.694
69.799	51.694
69.829	51.695
69.859	51.695
69.889	51.695
69.919	51.695
69.949	51.695
69.980	51.695
70.010	51.695
70.040	51.695
70.070	51.695
70.100	51.695
70.131	51.695
70.161	51.695
70.191	51.695
70.221	51.695
70.251	51.695
70.282	51.695
70.312	51.696
70.342	51.696
70.372	51.696
70.402	51.696
70.432	51.696
70.463	51.695
70.493	51.696
70.523	51.696
70.553	51.696
70.583	51.699
70.614	51.700
70.644	51.700
70.674	51.700
70.704	51.700
70.734	51.700
70.765	51.700
70.795	51.700
70.825	51.700
70.855	51.702
70.885	51.705
70.915	51.705
70.946	51.705
70.976	51.705
71.006	51.706
71.036	51.706
71.066	51.706
71.097	51.706
71.127	51.707
71.157	51.707
71.187	51.707
71.217	51.707
71.248	51.707
71.278	51.707
71.308	51.707
71.338	51.706
71.368	51.707
71.398	51.708
71.429	51.712
71.459	51.713
71.489	51.713
71.519	51.714
71.549	51.715
71.580	51.715
71.610	51.715
71.640	51.715
71.670	51.715
71.700	51.715
71.731	51.715
71.761	51.717
71.791	51.717
71.821	51.717
71.851	51.718
71.881	51.718
71.912	51.719
71.942	51.719
71.972	51.719
72.002	51.719
72.032	51.719
72.063	51.718
72.093	51.719
72.123	51.719
72.153	51.719
72.183	51.719
72.214	51.719
72.244	51.719
72.274	51.719
72.304	51.719
72.334	51.719
72.364	51.718
72.395	51.718
72.425	51.719
72.455	51.718
72.485	51.719
72.515	51.719
72.546	51.719
72.576	51.719
72.606	51.719
72.636	51.719
72.666	51.719
72.697	51.719
72.727	51.719
72.757	51.721
72.787	51.721
72.817	51.721
72.848	51.721
72.878	51.723
72.908	51.723
72.938	51.723
72.968	51.723
72.998	51.723
73.029	51.723
73.059	51.723
73.089	51.723
73.119	51.723
73.149	51.725
73.180	51.725
73.210	51.725
73.240	51.725
73.270	51.725
73.300	51.726
73.331	51.727
73.361	51.730
73.391	51.731
73.421	51.732
73.451	51.733
73.481	51.735
73.512	51.736
73.542	51.737
73.572	51.737
73.602	51.737
73.632	51.737
73.663	51.737
73.693	51.737
73.723	51.738
73.753	51.738
73.783	51.738
73.814	51.738
73.844	51.738
73.874	51.738
73.904	51.738
73.934	51.739
73.964	51.740
73.995	51.740
74.025	51.740
74.055	51.741
74.085	51.740
74.115	51.740
74.146	51.740
74.176	51.740
74.206	51.740
74.236	51.740
74.266	51.742
74.296	51.742
74.327	51.742
74.357	51.742
74.387	51.742
74.417	51.742
74.447	51.742
74.478	51.742
74.508	51.742
74.538	51.742
74.568	51.742
74.598	51.742
74.629	51.742
74.659	51.743
74.689	51.743
74.719	51.744
74.749	51.744
74.779	51.743
74.810	51.744
74.840	51.743
74.870	51.744
74.900	51.744
74.930	51.744
74.961	51.743
74.991	51.744
75.021	51.745
75.051	51.745
75.081	51.745
75.112	51.745
75.142	51.745
75.172	51.745
75.202	51.745
75.232	51.745
75.263	51.745
75.293	51.745
75.323	51.745
75.353	51.744
75.383	51.745
75.414	51.746
75.444	51.747
75.474	51.748
75.504	51.755
75.534	51.755
75.564	51.756
75.595	51.757
75.625	51.757
75.655	51.757
75.685	51.757
75.715	51.758
75.746	51.758
75.776	51.758
75.806	51.759
75.836	51.759
75.866	51.759
75.896	51.759
75.927	51.758
75.957	51.758
75.987	51.761
76.017	51.757
76.047	51.725
76.078	51.722
76.108	51.707
76.138	51.709
76.168	51.659
76.198	51.659
76.229	51.660
76.259	51.660
76.289	51.660
76.319	51.660
76.349	51.660
76.380	51.660
76.410	51.660
76.440	51.660
76.470	51.660
76.500	51.660
76.531	51.661
76.561	51.662
76.591	51.662
76.621	51.662
76.651	51.663
76.682	51.666
76.712	51.665
76.742	51.664
76.772	51.665
76.802	51.662
76.833	51.665
76.863	51.667
76.893	51.665
76.923	51.666
76.953	51.668
76.983	51.668
77.014	51.667
77.044	51.666
77.074	51.668
77.104	51.667
77.134	51.668
77.165	51.666
77.195	51.664
77.225	51.644
77.255	51.639
77.286	51.640
77.316	51.640
77.346	51.640
77.376	51.641
77.406	51.641
77.436	51.641
77.467	51.644
77.497	51.645
77.527	51.645
77.557	51.645
77.588	51.645
77.618	51.645
77.648	51.645
77.678	51.645
77.708	51.645
77.738	51.645
77.769	51.645
77.799	51.646
77.829	51.646
77.859	51.646
77.889	51.646
77.920	51.646
77.950	51.648
77.980	51.648
78.010	51.652
78.040	51.653
78.071	51.653
78.101	51.654
78.131	51.654
78.161	51.654
78.191	51.654
78.222	51.654
78.252	51.654
78.282	51.654
78.312	51.654
78.342	51.656
78.373	51.656
78.403	51.656
78.433	51.656
78.463	51.656
78.493	51.657
78.524	51.656
78.554	51.657
78.584	51.657
78.614	51.657
78.644	51.657
78.675	51.657
78.705	51.657
78.735	51.658
78.765	51.659
78.795	51.660
78.826	51.660
78.856	51.661
78.886	51.662
78.916	51.663
78.946	51.663
78.977	51.663
79.007	51.663
79.037	51.663
79.067	51.663
79.097	51.664
79.128	51.665
79.158	51.666
79.188	51.666
79.218	51.666
79.248	51.666
79.279	51.666
79.309	51.666
79.339	51.666
79.369	51.667
79.399	51.668
79.430	51.668
79.460	51.669
79.490	51.668
79.520	51.669
79.550	51.669
79.581	51.669
79.611	51.669
79.641	51.671
79.671	51.673
79.701	51.673
79.732	51.673
79.762	51.674
79.792	51.674
79.822	51.675
79.852	51.675
79.882	51.675
79.913	51.676
79.943	51.678
79.973	51.678
80.003	51.741
80.033	51.723
80.064	51.679
80.094	51.679
80.124	51.679
80.154	51.680
80.184	51.681
80.215	51.682
80.245	51.682
80.275	51.682
80.305	51.682
80.335	51.683
80.366	51.684
80.396	51.684
80.426	51.684
80.456	51.685
80.486	51.685
80.517	51.685
80.547	51.686
80.577	51.687
80.607	51.687
80.637	51.687
80.668	51.687
80.698	51.687
80.728	51.687
80.758	51.687
80.788	51.687
80.818	51.688
80.849	51.688
80.879	51.688
80.909	51.688
80.939	51.688
80.969	51.688
81.000	51.688
81.030	51.689
81.060	51.688
81.090	51.692
81.120	51.692
81.151	51.692
81.181	51.692
81.211	51.692
81.241	51.692
81.271	51.692
81.301	51.692
81.332	51.692
81.362	51.692
81.392	51.692
81.422	51.692
81.452	51.693
81.483	51.692
81.513	51.692
81.543	51.693
81.573	51.693
81.603	51.693
81.634	51.693
81.664	51.692
81.694	51.694
81.724	51.696
81.754	51.696
81.784	51.701
81.815	51.702
81.845	51.702
81.875	51.703
81.905	51.704
81.935	51.705
81.966	51.706
81.996	51.706
82.026	51.707
82.056	51.708
82.086	51.710
82.116	51.710
82.147	51.711
82.177	51.712
82.207	51.713
82.237	51.713
82.267	51.713
82.298	51.714
82.328	51.714
82.358	51.716
82.388	51.716
82.418	51.716
82.449	51.716
82.479	51.716
82.509	51.716
82.539	51.716
82.569	51.715
82.599	51.717
82.630	51.717
82.660	51.720
82.690	51.720
82.720	51.720
82.750	51.721
82.781	51.720
82.811	51.721
82.841	51.721
82.871	51.721
82.901	51.722
82.932	51.722
82.962	51.722
82.992	51.722
83.022	51.722
83.052	51.722
83.082	51.722
83.113	51.723
83.143	51.723
83.173	51.723
83.203	51.723
83.233	51.723
83.264	51.723
83.294	51.723
83.324	51.723
83.354	51.723
83.384	51.723
83.414	51.725
83.445	51.726
83.475	51.727
83.505	51.728
83.535	51.728
83.565	51.728
83.596	51.728
83.626	51.728
83.656	51.728
83.686	51.728
83.716	51.729
83.747	51.729
83.777	51.730
83.807	51.730
83.837	51.730
83.867	51.730
83.897	51.731
83.928	51.730
83.958	51.731
83.988	51.731
84.018	51.731
84.048	51.731
84.079	51.731
84.109	51.734
84.139	51.734
84.169	51.734
84.199	51.735
84.230	51.734
84.260	51.735
84.290	51.735
84.320	51.736
84.350	51.736
84.380	51.736
84.411	51.736
84.441	51.736
84.471	51.736
84.501	51.737
84.531	51.736
84.562	51.736
84.592	51.736
84.622	51.736
84.652	51.736
84.682	51.736
84.713	51.736
84.743	51.736
84.773	51.736
84.803	51.736
84.833	51.736
84.864	51.737
84.894	51.738
84.924	51.739
84.954	51.738
84.984	51.738
85.014	51.738
85.045	51.738
85.075	51.738
85.105	51.738
85.135	51.738
85.165	51.738
85.196	51.738
85.226	51.738
85.256	51.737
85.286	51.737
85.316	51.738
85.347	51.738
85.377	51.738
85.407	51.738
85.437	51.737
85.467	51.738
85.497	51.738
85.528	51.738
85.558	51.737
85.588	51.738
85.618	51.736
85.648	51.738
85.679	51.738
85.709	51.739
85.739	51.740
85.769	51.740
85.799	51.743
85.830	51.743
85.860	51.744
85.890	51.746
85.920	51.747
85.950	51.747
85.980	51.747
86.011	51.748
86.041	51.748
86.071	51.748
86.101	51.747
86.131	51.747
86.162	51.749
86.192	51.749
86.222	51.750
86.252	51.750
86.282	51.750
86.313	51.750
86.343	51.750
86.373	51.750
86.403	51.750
86.433	51.750
86.463	51.750
86.494	51.750
86.524	51.750
86.554	51.751
86.584	51.751
86.614	51.751
86.645	51.751
86.675	51.752
86.705	51.753
86.735	51.754
86.765	51.754
86.796	51.754
86.826	51.755
86.856	51.755
86.886	51.755
86.916	51.756
86.946	51.755
86.977	51.756
87.007	51.756
87.037	51.756
87.067	51.756
87.097	51.756
87.128	51.756
87.158	51.756
87.188	51.756
87.218	51.756
87.248	51.756
87.278	51.756
87.309	51.756
87.339	51.756
87.369	51.757
87.399	51.757
87.429	51.758
87.460	51.759
87.490	51.760
87.520	51.760
87.550	51.760
87.580	51.760
87.611	51.760
87.641	51.761
87.671	51.761
87.701	51.761
87.731	51.761
87.761	51.763
87.792	51.763
87.822	51.764
87.852	51.764
87.882	51.764
87.912	51.763
87.943	51.764
87.973	51.764
88.003	51.764
88.033	51.764
88.063	51.764
88.093	51.764
88.124	51.764
88.154	51.764
88.184	51.765
88.214	51.765
88.244	51.765
88.275	51.765
88.305	51.765
88.335	51.765
88.365	51.764
88.395	51.765
88.426	51.765
88.456	51.765
88.486	51.765
88.516	51.765
88.546	51.765
88.577	51.765
88.607	51.765
88.637	51.765
88.667	51.766
88.697	51.767
88.727	51.767
88.758	51.767
88.788	51.767
88.818	51.767
88.848	51.767
88.878	51.767
88.909	51.767
88.939	51.767
88.969	51.768
88.999	51.768
89.029	51.768
89.060	51.768
89.090	51.768
89.120	51.767
89.150	51.769
89.180	51.771
89.210	51.771
89.241	51.772
89.271	51.772
89.301	51.773
89.331	51.773
89.361	51.773
89.392	51.773
89.422	51.773
89.452	51.773
89.482	51.774
89.512	51.774
89.542	51.773
89.573	51.774
89.603	51.778
89.633	51.779
89.663	51.780
89.693	51.780
89.724	51.781
89.754	51.785
89.784	51.785
89.814	51.785
89.844	51.785
89.875	51.785
89.905	51.785
89.935	51.785
89.965	51.785
89.995	51.785
90.025	51.786
90.056	51.786
90.086	51.787
90.116	51.787
90.146	51.787
90.176	51.787
90.207	51.788
90.237	51.789
90.267	51.790
90.297	51.792
90.327	51.792
90.357	51.792
90.388	51.792
90.418	51.793
90.448	51.793
90.478	51.794
90.508	51.794
90.539	51.794
90.569	51.795
90.599	51.795
90.629	51.796
90.659	51.796
90.690	51.796
90.720	51.796
90.750	51.796
90.780	51.796
90.810	51.796
90.840	51.796
90.871	51.800
90.901	51.800
90.931	51.801
90.961	51.800
90.991	51.801
91.022	51.801
91.052	51.801
91.082	51.801
91.112	51.801
91.142	51.801
91.173	51.801
91.203	51.802
91.233	51.802
91.263	51.802
91.293	51.803
91.323	51.806
91.354	51.808
91.384	51.809
91.414	51.810
91.444	51.811
91.474	51.811
91.505	51.811
91.535	51.812
91.565	51.812
91.595	51.812
91.625	51.812
91.655	51.812
91.686	51.813
91.716	51.813
91.746	51.813
91.776	51.814
91.806	51.814
91.837	51.815
91.867	51.815
91.897	51.815
91.927	51.816
91.957	51.817
91.988	51.818
92.018	51.818
92.048	51.819
92.078	51.820
92.108	51.824
92.138	51.825
92.169	51.825
92.199	51.827
92.229	51.829
92.259	51.836
92.290	51.837
92.320	51.837
92.350	51.838
92.380	51.838
92.410	51.839
92.441	51.840
92.471	51.841
92.501	51.842
92.531	51.842
92.561	51.845
92.591	51.848
92.622	51.849
92.652	51.850
92.682	51.850
92.712	51.850
92.743	51.850
92.773	51.850
92.803	51.850
92.833	51.850
92.863	51.850
92.894	51.850
92.924	51.852
92.954	51.855
92.984	51.855
93.014	51.856
93.044	51.856
93.075	51.856
93.105	51.856
93.135	51.856
93.165	51.857
93.195	51.857
93.226	51.858
93.256	51.859
93.286	51.859
93.316	51.860
93.346	51.859
93.377	51.860
93.407	51.860
93.437	51.860
93.467	51.860
93.497	51.862
93.528	51.861
93.558	51.861
93.588	51.862
93.618	51.862
93.648	51.865
93.679	51.862
93.709	51.863
93.739	51.864
93.769	51.865
93.799	51.865
93.830	51.865
93.860	51.866
93.890	51.867
93.920	51.867
93.950	51.867
93.981	51.867
94.011	51.869
94.041	51.872
94.071	51.873
94.101	51.874
94.132	51.875
94.162	51.875
94.192	51.877
94.222	51.877
94.252	51.877
94.283	51.877
94.313	51.878
94.343	51.878
94.373	51.877
94.403	51.880
94.434	51.880
94.464	51.881
94.494	51.881
94.524	51.883
94.554	51.887
94.585	51.889
94.615	51.889
94.645	51.890
94.675	51.891
94.705	51.892
94.735	51.892
94.766	51.892
94.796	51.892
94.826	51.893
94.856	51.895
94.886	51.895
94.917	51.895
94.947	51.895
94.977	51.895
95.007	51.895
95.037	51.895
95.067	51.895
95.098	51.895
95.128	51.895
95.158	51.895
95.188	51.895
95.218	51.896
95.249	51.897
95.279	51.897
95.309	51.897
95.339	51.898
95.369	51.898
95.400	51.898
95.430	51.898
95.460	51.898
95.490	51.898
95.520	51.899
95.551	51.899
95.581	51.899
95.611	52.022
95.641	52.026
95.671	52.030
95.701	52.028
95.732	51.907
95.762	51.907
95.792	51.907
95.822	51.908
95.852	51.909
95.883	51.909
95.913	51.909
95.943	51.910
95.973	51.911
96.003	51.912
96.034	51.912
96.064	51.912
96.094	51.913
96.124	51.913
96.154	51.913
96.184	51.913
96.215	51.914
96.245	51.914
96.275	51.915
96.305	51.915
96.335	51.917
96.366	51.920
96.396	51.921
96.426	51.921
96.456	51.921
96.486	51.921
96.517	51.921
96.547	51.921
96.577	51.921
96.607	51.922
96.637	51.922
96.667	51.922
96.698	51.923
96.728	51.923
96.758	51.923
96.788	51.923
96.818	51.923
96.849	51.923
96.879	51.923
96.909	51.923
96.939	51.923
96.969	51.923
97.000	51.923
97.030	51.924
97.060	51.924
97.090	51.924
97.120	51.924
97.150	51.924
97.181	51.924
97.211	51.924
97.241	51.924
97.271	51.924
97.301	51.924
97.332	51.924
97.362	51.924
97.392	51.924
97.422	51.925
97.452	51.925
97.482	51.925
97.513	51.925
97.543	51.925
97.573	51.925
97.603	51.925
97.633	51.926
97.664	51.926
97.694	51.926
97.724	51.926
97.754	51.926
97.784	51.926
97.815	51.926
97.845	51.926
97.875	51.927
97.905	51.927
97.935	51.927
97.965	51.928
97.996	51.928
98.026	51.928
98.056	51.928
98.086	51.928
98.116	51.929
98.147	51.928
98.177	51.929
98.207	51.929
98.237	51.929
98.267	51.930
98.298	51.930
98.328	51.930
98.358	51.930
98.388	51.930
98.418	51.930
98.448	51.931
98.479	51.931
98.509	51.931
98.539	51.931
98.569	51.932
98.599	51.932
98.630	51.932
98.660	51.933
98.690	51.934
98.720	51.934
98.750	51.934
98.780	51.934
98.811	51.934
98.841	51.934
98.871	51.934
98.901	51.934
98.931	51.934
98.962	51.934
98.992	51.934
99.022	51.934
99.052	51.935
99.082	51.936
99.113	51.936
99.143	51.937
99.173	51.937
99.203	51.937
99.233	51.937
99.264	51.937
99.294	51.938
99.324	51.938
99.354	51.940
99.384	51.940
99.414	51.943
99.445	51.943
99.475	51.943
99.505	51.943
99.535	51.943
99.565	51.943
99.596	51.945
99.626	51.946
99.656	51.946
99.686	51.946
99.716	51.946
99.747	51.946
99.777	51.946
99.807	51.947
99.837	51.946
99.867	51.946
99.897	51.947
99.928	51.947
99.958	51.947
99.988	51.947
100.018	51.947
100.048	51.947
100.079	51.947
100.109	51.947
100.139	51.947
100.169	51.947
100.199	51.947
100.229	51.948
100.260	51.948
100.290	51.948
100.320	51.948
100.350	51.948
100.380	51.948
100.411	51.949
100.441	51.951
100.471	51.952
100.501	51.953
100.531	51.954
100.562	51.954
100.592	51.954
100.622	51.954
100.652	51.955
100.682	51.954
100.712	51.954
100.743	51.953
100.773	51.952
100.803	51.950
100.833	51.865
100.863	51.660
100.894	51.660
100.924	51.661
100.954	51.661
100.984	51.661
101.014	51.661
101.045	51.661
101.075	51.702
101.105	51.960
101.135	51.963
101.165	51.965
101.196	51.967
101.226	51.969
101.256	51.971
101.286	51.971
101.316	51.972
101.346	51.972
101.377	51.973
101.407	51.973
101.437	51.973
101.467	51.974
101.497	51.974
101.528	51.974
101.558	51.975
101.588	51.975
101.618	51.975
101.648	51.976
101.678	51.976
101.709	51.976
101.739	51.976
101.769	51.976
101.799	51.976
101.829	51.977
101.860	51.977
101.890	51.978
101.920	51.978
101.950	51.980
101.980	51.980
102.011	51.980
102.041	51.980
102.071	51.981
102.101	51.981
102.131	51.981
102.161	51.981
102.192	51.981
102.222	51.981
102.252	51.982
102.282	51.983
102.312	51.983
102.343	51.984
102.373	51.984
102.403	51.984
102.433	51.984
102.463	51.984
102.494	51.985
102.524	51.985
102.554	51.985
102.584	51.986
102.614	51.986
102.645	51.986
102.675	51.987
102.705	51.987
102.735	51.988
102.765	51.988
102.795	51.988
102.826	51.990
102.856	51.990
102.886	51.990
102.916	51.991
102.946	51.991
102.977	51.991
103.007	51.993
103.037	51.994
103.067	51.994
103.097	51.994
103.128	51.994
103.158	51.994
103.188	51.994
103.218	51.994
103.248	51.995
103.278	51.995
103.309	51.995
103.339	51.995
103.369	51.995
103.399	51.995
103.429	51.995
103.460	51.995
103.490	51.996
103.520	51.996
103.550	51.996
103.580	51.997
103.610	51.998
103.641	51.998
103.671	51.998
103.701	51.998
103.731	51.998
103.761	51.998
103.792	51.998
103.822	51.998
103.852	51.998
103.882	51.998
103.912	51.998
103.943	51.998
103.973	51.999
104.003	51.999
104.033	51.999
104.063	51.999
104.093	51.999
104.124	51.999
104.154	51.999
104.184	51.999
104.214	51.999
104.244	51.999
104.275	51.999
104.305	51.999
104.335	51.999
104.365	51.999
104.395	51.999
104.426	52.000
104.456	52.000
104.486	52.000
104.516	52.005
104.546	52.009
104.576	52.010
104.607	52.010
104.637	52.011
104.667	52.011
104.697	52.011
104.727	52.010
104.758	52.010
104.788	52.012
104.818	52.012
104.848	52.012
104.878	52.012
104.909	52.012
104.939	52.012
104.969	52.013
104.999	52.013
105.029	52.013
105.059	52.013
105.090	52.013
105.120	52.014
105.150	52.014
105.180	52.014
105.210	52.014
105.241	52.014
105.271	52.014
105.301	52.014
105.331	52.014
105.361	52.017
105.392	52.017
105.422	52.018
105.452	52.020
105.482	52.021
105.512	52.021
105.543	52.021
105.573	52.021
105.603	52.021
105.633	52.022
105.663	52.021
105.694	52.022
105.724	52.022
105.754	52.022
105.784	52.022
105.814	52.022
105.845	52.024
105.875	52.024
105.905	52.024
105.935	52.024
105.965	52.025
105.996	52.028
106.026	52.029
106.056	52.029
106.086	52.029
106.116	52.030
106.147	52.030
106.177	52.030
106.207	52.030
106.237	52.030
106.267	52.030
106.298	52.031
106.328	52.031
106.358	52.031
106.388	52.032
106.418	52.034
106.449	52.034
106.479	52.035
106.509	52.035
106.539	52.035
106.569	52.035
106.599	52.035
106.630	52.036
106.660	52.036
106.690	52.036
106.720	52.037
106.750	52.037
106.781	52.037
106.811	52.037
106.841	52.038
106.871	52.038
106.901	52.038
106.932	52.039
106.962	52.040
106.992	52.040
107.022	52.041
107.052	52.042
107.083	52.043
107.113	52.044
107.143	52.044
107.173	52.044
107.203	52.044
107.234	52.045
107.264	52.046
107.294	52.046
107.324	52.046
107.354	52.047
107.385	52.049
107.415	52.049
107.445	52.049
107.475	52.049
107.505	52.049
107.536	52.049
107.566	52.049
107.596	52.050
107.626	52.050
107.656	52.050
107.687	52.050
107.717	52.050
107.747	52.050
107.777	52.054
107.807	52.056
107.838	52.056
107.868	52.058
107.898	52.058
107.928	52.059
107.958	52.059
107.989	52.059
108.019	52.060
108.049	52.061
108.079	52.063
108.109	52.063
108.140	52.063
108.170	52.063
108.200	52.063
108.230	52.063
108.260	52.063
108.291	52.064
108.321	52.064
108.351	52.064
108.381	52.064
108.411	52.065
108.442	52.066
108.472	52.066
108.502	52.066
108.532	52.066
108.562	52.067
108.593	52.067
108.623	52.068
108.653	52.068
108.683	52.068
108.713	52.068
108.744	52.068
108.774	52.069
108.804	52.069
108.834	52.069
108.864	52.069
108.895	52.069
108.925	52.069
108.955	52.069
108.985	52.069
109.015	52.069
109.046	52.069
109.076	52.070
109.106	52.070
109.136	52.070
109.166	52.070
109.197	52.070
109.227	52.070
109.257	52.070
109.287	52.070
109.317	52.070
109.348	52.070
109.378	52.070
109.408	52.070
109.438	52.070
109.468	52.070
109.499	52.071
109.529	52.071
109.559	52.071
109.589	52.071
109.619	52.071
109.650	52.071
109.680	52.071
109.710	52.071
109.740	52.071
109.770	52.071
109.801	52.071
109.831	52.071
109.861	52.072
109.891	52.072
109.921	52.072
109.952	52.072
109.982	52.073
110.012	52.073
110.042	52.073
110.072	52.073
110.103	52.073
110.133	52.078
110.163	52.079
110.193	52.079
110.223	52.080
110.253	52.080
110.284	52.081
110.314	52.081
110.344	52.082
110.374	52.082
110.404	52.082
110.435	52.082
110.465	52.082
110.495	52.082
110.525	52.082
110.555	52.082
110.586	52.082
110.616	52.082
110.646	52.082
110.676	52.082
110.706	52.083
110.736	52.083
110.767	52.083
110.797	52.083
110.827	52.083
110.857	52.083
110.887	52.083
110.918	52.113
110.948	52.156
110.978	52.157
111.008	52.157
111.038	52.158
111.069	52.158
111.099	52.159
111.129	52.159
111.159	52.159
111.189	52.159
111.219	52.160
111.250	52.160
111.280	52.160
111.310	52.160
111.340	52.160
111.370	52.160
111.401	52.159
111.431	52.159
111.461	52.159
111.491	52.159
111.521	52.162
111.552	52.162
111.582	52.162
111.612	52.163
111.642	52.163
111.672	52.163
111.702	52.163
111.733	52.163
111.763	52.163
111.793	52.164
111.823	52.164
111.853	52.164
111.884	52.164
111.914	52.164
111.944	52.164
111.974	52.164
112.004	52.164
112.035	52.164
112.065	52.164
112.095	52.164
112.125	52.164
112.155	52.164
112.185	52.164
112.216	52.164
112.246	52.164
112.276	52.132
112.306	52.090
112.336	52.090
112.367	52.090
112.397	52.092
112.427	52.091
112.457	52.090
112.487	52.090
112.517	52.090
112.548	52.090
112.578	52.091
112.608	52.091
112.638	52.091
112.668	52.091
112.699	52.091
112.729	52.091
112.759	52.091
112.789	52.091
112.819	52.091
112.850	52.091
112.880	52.091
112.910	52.092
112.940	52.092
112.970	52.092
113.000	52.092
113.031	52.092
113.061	52.092
113.091	52.092
113.121	52.092
113.151	52.092
113.182	52.092
113.212	52.092
113.242	52.092
113.272	52.092
113.302	52.092
113.333	52.093
113.363	52.093
113.393	52.093
113.423	52.094
113.453	52.095
113.483	52.095
113.514	52.096
113.544	52.096
113.574	52.096
113.604	52.097
113.634	52.097
113.665	52.097
113.695	52.097
113.725	52.098
113.755	52.098
113.785	52.100
113.816	52.100
113.846	52.100
113.876	52.100
113.906	52.100
113.936	52.100
113.966	52.100
113.997	52.100
114.027	52.100
114.057	52.101
114.087	52.100
114.117	52.101
114.148	52.101
114.178	52.101
114.208	52.101
114.238	52.102
114.268	52.102
114.298	52.102
114.329	52.103
114.359	52.105
114.389	52.107
114.419	52.107
114.449	52.107
114.480	52.107
114.510	52.108
114.540	52.108
114.570	52.108
114.600	52.108
114.631	52.109
114.661	52.109
114.691	52.109
114.721	52.109
114.751	52.109
114.781	52.109
114.812	52.109
114.842	52.109
114.872	52.109
114.902	52.110
114.932	52.110
114.963	52.110
114.993	52.110
115.023	52.111
115.053	52.112
115.083	52.113
115.114	52.113
115.144	52.113
115.174	52.113
115.204	52.113
115.234	52.113
115.265	52.114
115.295	52.113
115.325	52.113
115.355	52.114
115.385	52.114
115.415	52.114
115.446	52.114
115.476	52.114
115.506	52.114
115.536	52.114
115.566	52.114
115.597	52.114
115.627	52.114
115.657	52.114
115.687	52.114
115.717	52.114
115.747	52.114
115.778	52.114
115.808	52.115
115.838	52.115
115.868	52.115
115.898	52.115
115.929	52.116
115.959	52.116
115.989	52.116
116.019	52.116
116.049	52.116
116.080	52.116
116.110	52.116
116.140	52.117
116.170	52.117
116.200	52.117
116.231	52.117
116.261	52.117
116.291	52.117
116.321	52.118
116.351	52.118
116.381	52.118
116.412	52.118
116.442	52.119
116.472	52.119
116.502	52.119
116.532	52.119
116.563	52.119
116.593	52.119
116.623	52.119
116.653	52.119
116.683	52.120
116.714	52.120
116.744	52.121
116.774	52.122
116.804	52.122
116.834	52.122
116.864	52.122
116.895	52.123
116.925	52.124
116.955	52.124
116.985	52.124
117.015	52.124
117.046	52.125
117.076	52.124
117.106	52.124
117.136	52.126
117.166	52.127
117.196	52.128
117.227	52.128
117.257	52.128
117.287	52.128
117.317	52.128
117.347	52.128
117.378	52.128
117.408	52.128
117.438	52.128
117.468	52.129
117.498	52.129
117.529	52.129
117.559	52.129
117.589	52.129
117.619	52.129
117.649	52.129
117.679	52.129
117.710	52.129
117.740	52.131
117.770	52.131
117.800	52.131
117.830	52.131
117.861	52.131
117.891	52.131
117.921	52.132
117.951	52.132
117.981	52.132
118.012	52.132
118.042	52.132
118.072	52.133
118.102	52.133
118.132	52.134
118.162	52.136
118.193	52.136
118.223	52.136
118.253	52.136
118.283	52.137
118.313	52.137
118.344	52.137
118.374	52.137
118.404	52.137
118.434	52.137
118.464	52.138
118.494	52.138
118.525	52.138
118.555	52.138
118.585	52.139
118.615	52.139
118.645	52.140
118.676	52.141
118.706	52.141
118.736	52.141
118.766	52.142
118.796	52.142
118.827	52.142
118.857	52.142
118.887	52.142
118.917	52.143
118.947	52.143
118.978	52.143
119.008	52.144
119.038	52.145
119.068	52.146
119.098	52.146
119.128	52.146
119.159	52.146
119.189	52.146
119.219	52.147
119.249	52.147
119.279	52.147
119.310	52.147
119.340	52.147
119.370	52.147
119.400	52.147
119.430	52.147
119.461	52.147
119.491	52.147
119.521	52.147
119.551	52.147
119.581	52.147
119.611	52.149
119.642	52.149
119.672	52.149
119.702	52.150
119.732	52.150
119.762	52.150
119.793	52.150
119.823	52.150
119.853	52.151
119.883	52.151
119.913	52.151
119.943	52.151
119.974	52.151
120.004	52.152
120.034	52.155
120.064	52.155
120.094	52.155
120.125	52.155
120.155	52.155
120.185	52.155
120.215	52.155
120.245	52.155
120.276	52.156
120.306	52.156
120.336	52.156
120.366	52.157
120.396	52.157
120.426	52.157
120.457	52.159
120.487	52.159
120.517	52.159
120.547	52.159
120.577	52.159
120.608	52.159
120.638	52.159
120.668	52.159
120.698	52.159
120.728	52.159
120.759	52.160
120.789	52.160
120.819	52.160
120.849	52.160
120.879	52.160
120.910	52.160
120.940	52.161
120.970	52.161
121.000	52.161
121.030	52.161
121.060	52.161
121.091	52.162
121.121	52.162
121.151	52.162
121.181	52.162
121.211	52.162
121.242	52.163
121.272	52.167
121.302	52.168
121.332	52.168
121.362	52.168
121.393	52.168
121.423	52.168
121.453	52.168
121.483	52.168
121.513	52.169
121.543	52.169
121.574	52.169
121.604	52.170
121.634	52.171
121.664	52.172
121.694	52.172
121.725	52.172
121.755	52.172
121.785	52.173
121.815	52.173
121.845	52.173
121.875	52.173
121.906	52.173
121.936	52.175
121.966	52.176
121.996	52.176
122.026	52.177
122.057	52.177
122.087	52.177
122.117	52.177
122.147	52.177
122.177	52.177
122.208	52.177
122.238	52.177
122.268	52.177
122.298	52.177
122.328	52.178
122.358	52.178
122.389	52.178
122.419	52.178
122.449	52.178
122.479	52.178
122.509	52.178
122.540	52.178
122.570	52.178
122.600	52.179
122.630	52.179
122.660	52.179
122.691	52.179
122.721	52.181
122.751	52.180
122.781	52.181
122.811	52.181
122.841	52.181
122.872	52.181
122.902	52.181
122.932	52.181
122.962	52.181
122.992	52.181
123.023	52.181
123.053	52.181
123.083	52.181
123.113	52.181
123.143	52.182
123.174	52.182
123.204	52.182
123.234	52.182
123.264	52.183
123.294	52.184
123.324	52.185
123.355	52.186
123.385	52.186
123.415	52.186
123.445	52.186
123.475	52.187
123.506	52.187
123.536	52.187
123.566	52.187
123.596	52.187
123.626	52.187
123.656	52.188

