NW1 Channel 9 Decay	
Time (h)	Current (uA)
0.017	11.077
0.033	12.024
0.050	12.042
0.067	12.084
0.083	12.093
0.100	12.064
0.116	12.054
0.133	12.044
0.150	12.053
0.166	12.005
0.183	12.020
0.200	12.040
0.216	12.062
0.233	12.032
0.249	12.067
0.266	12.074
0.283	12.043
0.299	12.058
0.316	12.058
0.332	12.017
0.349	12.054
0.366	12.010
0.382	12.001
0.399	12.013
0.416	12.045
0.432	12.052
0.449	12.035
0.465	12.041
0.482	12.042
0.499	12.042
0.515	12.011
0.532	12.043
0.549	12.021
0.565	11.986
0.582	12.033
0.598	12.075
0.615	12.011
0.632	12.014
0.648	12.022
0.665	12.019
0.682	11.986
0.698	12.034
0.715	12.016
0.731	11.982
0.748	11.990
0.765	11.996
0.781	11.995
0.798	12.015
0.814	11.984
0.831	12.018
0.848	12.013
0.864	12.017
0.881	12.026
0.898	12.036
0.914	12.030
0.931	12.045
0.947	11.995
0.964	12.025
0.981	12.001
0.997	11.978
1.014	11.994
1.031	11.947
1.047	11.950
1.064	12.007
1.080	11.979
1.097	11.987
1.114	12.038
1.130	12.015
1.147	12.026
1.164	12.000
1.180	12.060
1.197	12.037
1.213	12.027
1.230	11.995
1.247	11.976
1.263	11.984
1.280	12.018
1.297	11.992
1.313	11.975
1.330	11.970
1.346	12.011
1.363	12.006
1.380	12.018
1.396	11.984
1.413	11.993
1.429	11.991
1.446	12.008
1.463	11.984
1.479	12.017
1.496	11.987
1.513	11.978
1.529	11.993
1.546	11.998
1.562	11.994
1.579	11.986
1.596	11.986
1.612	11.959
1.629	11.988
1.646	11.980
1.662	11.974
1.679	11.978
1.695	12.008
1.712	11.991
1.729	12.000
1.745	11.973
1.762	11.994
1.779	11.983
1.795	11.971
1.812	11.984
1.828	12.012
1.845	11.980
1.862	11.982
1.878	12.000
1.895	11.999
1.912	11.965
1.928	12.000
1.945	11.966
1.961	11.969
1.978	11.971
1.995	11.981
2.011	11.986
2.028	11.971
2.044	11.973
2.061	11.928
2.078	11.950
2.094	11.934
2.111	11.921
2.128	11.951
2.144	11.987
2.161	11.965
2.177	11.927
2.194	11.928
2.211	11.918
2.227	11.957
2.244	11.950
2.261	11.956
2.277	11.994
2.294	11.984
2.310	11.971
2.327	11.978
2.344	11.951
2.360	11.946
2.377	11.948
2.394	11.932
2.410	11.960
2.427	11.963
2.443	11.994
2.460	11.981
2.477	11.963
2.493	11.934
2.510	11.959
2.527	11.971
2.543	11.962
2.560	11.954
2.576	11.981
2.593	11.954
2.610	11.943
2.626	11.973
2.643	11.929
2.659	11.946
2.676	11.975
2.693	11.943
2.709	11.945
2.726	11.941
2.743	11.942
2.759	11.943
2.776	11.945
2.792	11.978
2.809	11.976
2.826	11.977
2.842	11.951
2.859	11.996
2.876	11.946
2.892	11.937
2.909	11.922
2.925	11.949
2.942	11.972
2.959	11.953
2.975	11.956
2.992	11.914
3.009	11.936
3.025	11.961
3.042	11.965
3.058	11.968
3.075	11.998
3.092	11.982
3.108	11.971
3.125	11.980
3.142	11.941
3.158	11.937
3.175	11.937
3.191	11.917
3.208	11.914
3.225	11.895
3.241	11.898
3.258	11.945
3.274	11.957
3.291	11.948
3.308	11.953
3.324	11.915
3.341	11.956
3.358	11.955
3.374	11.976
3.391	11.975
3.407	11.999
3.424	11.954
3.441	11.949
3.457	11.979
3.474	11.928
3.491	11.958
3.507	11.949
3.524	11.973
3.540	11.976
3.557	11.942
3.574	11.967
3.590	11.942
3.607	11.955
3.624	11.956
3.640	11.938
3.657	11.952
3.673	11.933
3.690	11.927
3.707	11.901
3.723	11.889
3.740	11.923
3.757	11.923
3.773	11.926
3.790	11.946
3.806	11.948
3.823	11.921
3.840	11.913
3.856	11.894
3.873	11.903
3.889	11.915
3.906	11.873
3.923	11.940
3.939	11.892
3.956	11.913
3.973	11.942
3.989	11.932
4.006	11.901
4.022	11.922
4.039	11.934
4.056	11.911
4.072	11.898
4.089	11.927
4.106	11.914
4.122	11.922
4.139	11.905
4.155	11.890
4.172	11.908
4.189	11.935
4.205	11.903
4.222	11.942
4.239	11.946
4.255	11.900
4.272	11.915
4.288	11.899
4.305	11.915
4.322	11.919
4.338	11.897
4.355	11.867
4.372	11.895
4.388	11.898
4.405	11.868
4.421	11.897
4.438	11.876
4.455	11.881
4.471	11.859
4.488	11.898
4.504	11.921
4.521	11.883
4.538	11.886
4.554	11.883
4.571	11.940
4.588	11.905
4.604	11.923
4.621	11.928
4.637	11.911
4.654	11.890
4.671	11.942
4.687	11.946
4.704	11.908
4.721	11.901
4.737	11.925
4.754	11.924
4.770	11.900
4.787	11.920
4.804	11.969
4.820	11.891
4.837	11.877
4.854	11.917
4.870	11.898
4.887	11.900
4.903	11.873
4.920	11.894
4.937	11.913
4.953	11.893
4.970	11.909
4.987	11.920
5.003	11.916
5.020	11.934
5.036	11.938
5.053	11.897
5.070	11.913
5.086	11.908
5.103	11.869
5.119	11.888
5.136	11.881
5.153	11.931
5.169	11.899
5.186	11.909
5.203	11.909
5.219	11.896
5.236	11.906
5.252	11.942
5.269	11.889
5.286	11.911
5.302	11.905
5.319	11.881
5.336	11.871
5.352	11.895
5.369	11.906
5.385	11.910
5.402	11.911
5.419	11.929
5.435	11.910
5.452	11.899
5.469	11.926
5.485	11.911
5.502	11.941
5.518	11.924
5.535	11.960
5.552	11.941
5.568	11.915
5.585	11.931
5.602	11.880
5.618	11.894
5.635	11.927
5.651	11.905
5.668	11.904
5.685	11.888
5.701	11.896
5.718	11.895
5.734	11.910
5.751	11.880
5.768	11.914
5.784	11.890
5.801	11.873
5.818	11.908
5.834	11.915
5.851	11.911
5.867	11.913
5.884	11.909
5.901	11.883
5.917	11.873
5.934	11.865
5.951	11.891
5.967	11.879
5.984	11.861
6.000	11.901
6.017	11.879
6.034	11.901
6.050	11.909
6.067	11.898
6.084	11.908
6.100	11.919
6.117	11.857
6.133	11.881
6.150	11.912
6.167	11.893
6.183	11.888
6.200	11.867
6.217	11.880
6.233	11.888
6.250	11.870
6.266	11.904
6.283	11.888
6.300	11.900
6.316	11.864
6.333	11.888
6.349	11.918
6.366	11.892
6.383	11.872
6.399	11.867
6.416	11.875
6.433	11.885
6.449	11.885
6.466	11.870
6.482	11.890
6.499	11.924
6.516	11.899
6.532	11.897
6.549	11.909
6.566	11.897
6.582	11.938
6.599	11.884
6.615	11.933
6.632	11.911
6.649	11.887
6.665	11.879
6.682	11.893
6.699	11.892
6.715	11.914
6.732	11.861
6.748	11.918
6.765	11.890
6.782	11.853
6.798	11.890
6.815	11.922
6.832	11.884
6.848	11.896
6.865	11.904
6.881	11.899
6.898	11.909
6.915	11.894
6.931	11.898
6.948	11.873
6.964	11.868
6.981	11.901
6.998	11.901
7.014	11.865
7.031	11.872
7.048	11.889
7.064	11.874
7.081	11.884
7.097	11.880
7.114	11.906
7.131	11.910
7.147	11.863
7.164	11.848
7.181	11.869
7.197	11.896
7.214	11.882
7.230	11.882
7.247	11.932
7.264	11.924
7.280	11.904
7.297	11.914
7.314	11.926
7.330	11.853
7.347	11.879
7.363	11.871
7.380	11.875
7.397	11.873
7.413	11.860
7.430	11.867
7.447	11.855
7.463	11.883
7.480	11.884
7.496	11.884
7.513	11.874
7.530	11.892
7.546	11.883
7.563	11.886
7.579	11.848
7.596	11.865
7.613	11.875
7.629	11.876
7.646	11.876
7.663	11.871
7.679	11.880
7.696	11.878
7.712	11.876
7.729	11.878
7.746	11.913
7.762	11.911
7.779	11.895
7.796	11.884
7.812	11.865
7.829	11.894
7.845	11.862
7.862	11.887
7.879	11.873
7.895	11.827
7.912	11.857
7.929	11.903
7.945	11.860
7.962	11.881
7.978	11.861
7.995	11.872
8.012	11.824
8.028	11.853
8.045	11.876
8.062	11.881
8.078	11.877
8.095	11.885
8.111	11.867
8.128	11.884
8.145	11.877
8.161	11.865
8.178	11.859
8.194	11.858
8.211	11.852
8.228	11.793
8.244	11.829
8.261	11.842
8.278	11.836
8.294	11.871
8.311	11.901
8.327	11.835
8.344	11.877
8.361	11.906
8.377	11.889
8.394	11.872
8.411	11.873
8.427	11.887
8.444	11.884
8.460	11.846
8.477	11.851
8.494	11.862
8.510	11.848
8.527	11.879
8.544	11.851
8.560	11.888
8.577	11.906
8.593	11.859
8.610	11.883
8.627	11.859
8.643	11.874
8.660	11.833
8.677	11.861
8.693	11.847
8.710	11.853
8.726	11.842
8.743	11.808
8.760	11.828
8.776	11.839
8.793	11.810
8.809	11.834
8.826	11.882
8.843	11.850
8.859	11.831
8.876	11.840
8.893	11.865
8.909	11.891
8.926	11.839
8.942	11.850
8.959	11.815
8.976	11.847
8.992	11.869
9.009	11.853
9.026	11.868
9.042	11.842
9.059	11.822
9.075	11.831
9.092	11.829
9.109	11.859
9.125	11.824
9.142	11.840
9.159	11.806
9.175	11.834
9.192	11.838
9.208	11.849
9.225	11.856
9.242	11.873
9.258	11.868
9.275	11.855
9.292	11.860
9.308	11.831
9.325	11.829
9.341	11.848
9.358	11.858
9.375	11.866
9.391	11.848
9.408	11.863
9.424	11.828
9.441	11.841
9.458	11.835
9.474	11.854
9.491	11.835
9.508	11.796
9.524	11.842
9.541	11.845
9.557	11.871
9.574	11.865
9.591	11.858
9.607	11.851
9.624	11.859
9.641	11.902
9.657	11.857
9.674	11.846
9.690	11.832
9.707	11.828
9.724	11.838
9.740	11.842
9.757	11.847
9.774	11.840
9.790	11.845
9.807	11.852
9.823	11.825
9.840	11.823
9.857	11.832
9.873	11.833
9.890	11.806
9.907	11.831
9.923	11.831
9.940	11.824
9.956	11.836
9.973	11.850
9.990	11.821
10.006	11.842
10.023	11.796
10.039	11.813
10.056	11.849
10.073	11.829
10.089	11.846
10.106	11.815
10.123	11.816
10.139	11.815
10.156	11.825
10.172	11.802
10.189	11.792
10.206	11.791
10.222	11.782
10.239	11.803
10.256	11.847
10.272	11.829
10.289	11.815
10.305	11.820
10.322	11.823
10.339	11.821
10.355	11.836
10.372	11.818
10.389	11.819
10.405	11.834
10.422	11.827
10.438	11.819
10.455	11.829
10.472	11.840
10.488	11.854
10.505	11.853
10.522	11.855
10.538	11.831
10.555	11.826
10.571	11.806
10.588	11.861
10.605	11.863
10.621	11.850
10.638	11.841
10.654	11.852
10.671	11.849
10.688	11.832
10.704	11.844
10.721	11.816
10.738	11.845
10.754	11.836
10.771	11.866
10.787	11.849
10.804	11.875
10.821	11.793
10.837	11.849
10.854	11.780
10.871	11.811
10.887	11.792
10.904	11.774
10.920	11.777
10.937	11.792
10.954	11.777
10.970	11.801
10.987	11.816
11.004	11.847
11.020	11.852
11.037	11.812
11.053	11.817
11.070	11.844
11.087	11.841
11.103	11.832
11.120	11.793
11.137	11.819
11.153	11.806
11.170	11.844
11.186	11.798
11.203	11.825
11.220	11.819
11.236	11.823
11.253	11.758
11.269	11.798
11.286	11.754
11.303	11.796
11.319	11.769
11.336	11.794
11.353	11.764
11.369	11.785
11.386	11.787
11.402	11.806
11.419	11.799
11.436	11.787
11.452	11.787
11.469	11.775
11.486	11.794
11.502	11.778
11.519	11.801
11.535	11.826
11.552	11.837
11.569	11.836
11.585	11.837
11.602	11.793
11.619	11.810
11.635	11.792
11.652	11.812
11.668	11.783
11.685	11.774
11.702	11.820
11.718	11.806
11.735	11.786
11.752	11.796
11.768	11.804
11.785	11.805
11.801	11.846
11.818	11.813
11.835	11.822
11.851	11.852
11.868	11.817
11.884	11.805
11.901	11.779
11.918	11.854
11.934	11.827
11.951	11.814
11.968	11.805
11.984	11.806
12.001	11.802
12.017	11.838
12.034	11.806
12.051	11.803
12.067	11.802
12.084	11.791
12.101	11.807
12.117	11.830
12.134	11.831
12.150	11.814
12.167	11.832
12.184	11.810
12.200	11.803
12.217	11.800
12.234	11.801
12.250	11.813
12.267	11.799
12.283	11.785
12.300	11.815
12.317	11.822
12.333	11.786
12.350	11.799
12.367	11.839
12.383	11.829
12.400	11.786
12.416	11.781
12.433	11.820
12.450	11.851
12.466	11.840
12.483	11.827
12.499	11.793
12.516	11.786
12.533	11.787
12.549	11.778
12.566	11.780
12.583	11.811
12.599	11.786
12.616	11.797
12.632	11.796
12.649	11.795
12.666	11.752
12.682	11.781
12.699	11.763
12.716	11.797
12.732	11.803
12.749	11.795
12.765	11.815
12.782	11.810
12.799	11.809
12.815	11.825
12.832	11.815
12.849	11.787
12.865	11.802
12.882	11.818
12.898	11.799
12.915	11.827
12.932	11.802
12.948	11.769
12.965	11.766
12.982	11.768
12.998	11.779
13.015	11.769
13.031	11.803
13.048	11.792
13.065	11.796
13.081	11.809
13.098	11.790
13.114	11.800
13.131	11.782
13.148	11.776
13.164	11.784
13.181	11.809
13.198	11.820
13.214	11.837
13.231	11.801
13.247	11.799
13.264	11.822
13.281	11.825
13.297	11.789
13.314	11.785
13.331	11.818
13.347	11.758
13.364	11.771
13.380	11.781
13.397	11.799
13.414	11.791
13.430	11.821
13.447	11.788
13.464	11.848
13.480	11.806
13.497	11.789
13.513	11.796
13.530	11.781
13.547	11.774
13.563	11.766
13.580	11.742
13.596	11.754
13.613	11.735
13.630	11.778
13.646	11.766
13.663	11.794
13.680	11.779
13.696	11.809
13.713	11.814
13.729	11.784
13.746	11.793
13.763	11.800
13.779	11.796
13.796	11.815
13.813	11.810
13.829	11.783
13.846	11.786
13.862	11.729
13.879	11.749
13.896	11.759
13.912	11.777
13.929	11.764
13.946	11.753
13.962	11.742
13.979	11.754
13.995	11.733
14.012	11.762
14.029	11.770
14.045	11.788
14.062	11.803
14.079	11.779
14.095	11.782
14.112	11.797
14.128	11.800
14.145	11.781
14.162	11.790
14.178	11.799
14.195	11.759
14.211	11.765
14.228	11.781
14.245	11.788
14.261	11.735
14.278	11.724
14.295	11.740
14.311	11.777
14.328	11.769
14.344	11.784
14.361	11.759
14.378	11.794
14.394	11.790
14.411	11.813
14.428	11.804
14.444	11.811
14.461	11.813
14.477	11.793
14.494	11.788
14.511	11.799
14.527	11.800
14.544	11.796
14.561	11.792
14.577	11.782
14.594	11.814
14.610	11.787
14.627	11.786
14.644	11.789
14.660	11.784
14.677	11.833
14.694	11.780
14.710	11.802
14.727	11.797
14.743	11.822
14.760	11.809
14.777	11.865
14.793	11.808
14.810	11.824
14.826	11.813
14.843	11.819
14.860	11.820
14.876	11.820
14.893	11.772
14.910	11.777
14.926	11.781
14.943	11.763
14.959	11.768
14.976	11.801
14.993	11.765
15.009	11.797
15.026	11.769
15.043	11.804
15.059	11.789
15.076	11.777
15.092	11.776
15.109	11.770
15.126	11.756
15.142	11.793
15.159	11.792
15.176	11.791
15.192	11.788
15.209	11.801
15.225	11.769
15.242	11.798
15.259	11.798
15.275	11.832
15.292	11.769
15.309	11.772
15.325	11.777
15.342	11.782
15.358	11.783
15.375	11.782
15.392	11.773
15.408	11.750
15.425	11.755
15.441	11.796
15.458	11.779
15.475	11.804
15.491	11.827
15.508	11.794
15.525	11.793
15.541	11.784
15.558	11.805
15.574	11.768
15.591	11.788
15.608	11.775
15.624	11.758
15.641	11.783
15.658	11.786
15.674	11.744
15.691	11.780
15.707	11.760
15.724	11.785
15.741	11.804
15.757	11.832
15.774	11.801
15.791	11.788
15.807	11.781
15.824	11.750
15.840	11.772
15.857	11.797
15.874	11.810
15.890	11.756
15.907	11.807
15.924	11.775
15.940	11.780
15.957	11.759
15.973	11.763
15.990	11.786
16.007	11.805
16.023	11.795
16.040	11.742
16.056	11.730
16.073	11.787
16.090	11.753
16.106	11.759
16.123	11.761
16.140	11.738
16.156	11.798
16.173	11.776
16.189	11.752
16.206	11.727
16.223	11.758
16.239	11.736
16.256	11.758
16.273	11.793
16.289	11.804
16.306	11.771
16.322	11.757
16.339	11.774
16.356	11.764
16.372	11.747
16.389	11.749
16.406	11.734
16.422	11.764
16.439	11.748
16.455	11.752
16.472	11.766
16.489	11.735
16.505	11.727
16.522	11.761
16.539	11.773
16.555	11.796
16.572	11.804
16.588	11.804
16.605	11.775
16.622	11.768
16.638	11.772
16.655	11.774
16.671	11.759
16.688	11.764
16.705	11.732
16.721	11.760
16.738	11.805
16.755	11.788
16.771	11.821
16.788	11.775
16.804	11.787
16.821	11.782
16.838	11.789
16.854	11.786
16.871	11.788
16.888	11.779
16.904	11.792
16.921	11.796
16.937	11.747
16.954	11.787
16.971	11.743
16.987	11.760
17.004	11.761
17.021	11.729
17.037	11.731
17.054	11.734
17.070	11.740
17.087	11.707
17.104	11.711
17.120	11.713
17.137	11.719
17.154	11.731
17.170	11.774
17.187	11.761
17.203	11.783
17.220	11.748
17.237	11.740
17.253	11.749
17.270	11.748
17.286	11.748
17.303	11.771
17.320	11.761
17.336	11.745
17.353	11.745
17.370	11.751
17.386	11.734
17.403	11.739
17.419	11.709
17.436	11.746
17.453	11.739
17.469	11.753
17.486	11.735
17.503	11.715
17.519	11.729
17.536	11.752
17.552	11.788
17.569	11.757
17.586	11.798
17.602	11.761
17.619	11.765
17.636	11.748
17.652	11.757
17.669	11.783
17.685	11.755
17.702	11.768
17.719	11.797
17.735	11.790
17.752	11.785
17.769	11.762
17.785	11.767
17.802	11.780
17.818	11.723
17.835	11.728
17.852	11.746
17.868	11.762
17.885	11.785
17.901	11.744
17.918	11.747
17.935	11.733
17.951	11.731
17.968	11.759
17.985	11.743
18.001	11.700
18.018	11.725
18.034	11.739
18.051	11.739
18.068	11.714
18.084	11.726
18.101	11.670
18.118	11.738
18.134	11.756
18.151	11.719
18.167	11.749
18.184	11.714
18.201	11.717
18.217	11.723
18.234	11.728
18.251	11.714
18.267	11.747
18.284	11.742
18.300	11.727
18.317	11.757
18.334	11.764
18.350	11.759
18.367	11.757
18.384	11.757
18.400	11.751
18.417	11.755
18.433	11.725
18.450	11.759
18.467	11.773
18.483	11.754
18.500	11.814
18.516	11.769
18.533	11.787
18.550	11.810
18.566	11.752
18.583	11.749
18.600	11.772
18.616	11.742
18.633	11.716
18.649	11.707
18.666	11.740
18.683	11.729
18.699	11.726
18.716	11.731
18.733	11.739
18.749	11.752
18.766	11.777
18.782	11.741
18.799	11.724
18.816	11.729
18.832	11.749
18.849	11.732
18.866	11.747
18.882	11.752
18.899	11.767
18.915	11.733
18.932	11.746
18.949	11.695
18.965	11.763
18.982	11.739
18.999	11.724
19.015	11.753
19.032	11.722
19.048	11.749
19.065	11.746
19.082	11.720
19.098	11.735
19.115	11.747
19.131	11.727
19.148	11.709
19.165	11.720
19.181	11.699
19.198	11.723
19.215	11.723
19.231	11.735
19.248	11.745
19.264	11.738
19.281	11.732
19.298	11.747
19.314	11.764
19.331	11.747
19.348	11.721
19.364	11.724
19.381	11.707
19.397	11.722
19.414	11.752
19.431	11.732
19.447	11.725
19.464	11.717
19.481	11.709
19.497	11.699
19.514	11.702
19.530	11.684
19.547	11.689
19.564	11.669
19.580	11.711
19.597	11.740
19.614	11.736
19.630	11.746
19.647	11.723
19.663	11.743
19.680	11.749
19.697	11.702
19.713	11.741
19.730	11.721
19.746	11.743
19.763	11.703
19.780	11.718
19.796	11.692
19.813	11.723
19.830	11.706
19.846	11.706
19.863	11.728
19.879	11.694
19.896	11.713
19.913	11.724
19.929	11.715
19.946	11.736
19.963	11.678
19.979	11.705
19.996	11.718
20.012	11.696
20.029	11.693
20.046	11.694
20.062	11.691
20.079	11.696
20.096	11.689
20.112	11.689
20.129	11.689
20.145	11.649
20.162	11.676
20.179	11.694
20.195	11.680
20.212	11.695
20.229	11.676
20.245	11.713
20.262	11.691
20.278	11.674
20.295	11.671
20.312	11.688
20.328	11.685
20.345	11.661
20.361	11.689
20.378	11.651
20.395	11.668
20.411	11.684
20.428	11.685
20.445	11.670
20.461	11.666
20.478	11.695
20.494	11.672
20.511	11.678
20.528	11.734
20.544	11.712
20.561	11.704
20.578	11.721
20.594	11.750
20.611	11.744
20.627	11.692
20.644	11.697
20.661	11.677
20.677	11.692
20.694	11.725
20.711	11.724
20.727	11.729
20.744	11.714
20.760	11.699
20.777	11.711
20.794	11.693
20.810	11.695
20.827	11.689
20.844	11.679
20.860	11.703
20.877	11.666
20.893	11.681
20.910	11.668
20.927	11.674
20.943	11.669
20.960	11.740
20.976	11.697
20.993	11.692
21.010	11.688
21.026	11.702
21.043	11.665
21.060	11.733
21.076	11.710
21.093	11.691
21.109	11.707
21.126	11.712
21.143	11.716
21.159	11.718
21.176	11.722
21.193	11.729
21.209	11.705
21.226	11.680
21.242	11.687
21.259	11.708
21.276	11.711
21.292	11.725
21.309	11.739
21.326	11.702
21.342	11.718
21.359	11.716
21.375	11.721
21.392	11.738
21.409	11.690
21.425	11.680
21.442	11.753
21.459	11.738
21.475	11.725
21.492	11.754
21.508	11.739
21.525	11.747
21.542	11.710
21.558	11.761
21.575	11.712
21.591	11.699
21.608	11.714
21.625	11.724
21.641	11.754
21.658	11.752
21.675	11.744
21.691	11.718
21.708	11.712
21.724	11.763
21.741	11.697
21.758	11.699
21.774	11.715
21.791	11.723
21.808	11.743
21.824	11.721
21.841	11.724
21.857	11.701
21.874	11.702
21.891	11.697
21.907	11.730
21.924	11.730
21.941	11.724
21.957	11.711
21.974	11.715
21.990	11.723
22.007	11.724
22.024	11.752
22.040	11.727
22.057	11.740
22.074	11.718
22.090	11.712
22.107	11.703
22.123	11.710
22.140	11.703
22.157	11.680
22.173	11.693
22.190	11.671
22.206	11.715
22.223	11.675
22.240	11.709
22.256	11.717
22.273	11.692
22.290	11.694
22.306	11.709
22.323	11.688
22.339	11.703
22.356	11.708
22.373	11.697
22.389	11.701
22.406	11.650
22.423	11.683
22.439	11.703
22.456	11.709
22.472	11.701
22.489	11.679
22.506	11.684
22.522	11.685
22.539	11.682
22.556	11.704
22.572	11.694
22.589	11.719
22.605	11.692
22.622	11.696
22.639	11.714
22.655	11.695
22.672	11.672
22.689	11.667
22.705	11.669
22.722	11.676
22.738	11.656
22.755	11.716
22.772	11.691
22.788	11.702
22.805	11.672
22.821	11.673
22.838	11.681
22.855	11.690
22.871	11.656
22.888	11.682
22.905	11.667
22.921	11.683
22.938	11.669
22.954	11.685
22.971	11.685
22.988	11.693
23.004	11.654
23.021	11.666
23.038	11.676
23.054	11.660
23.071	11.682
23.087	11.643
23.104	11.648
23.121	11.678
23.137	11.693
23.154	11.671
23.171	11.682
23.187	11.706
23.204	11.673
23.220	11.683
23.237	11.664
23.254	11.689
23.270	11.679
23.287	11.675
23.304	11.681
23.320	11.676
23.337	11.704
23.353	11.690
23.370	11.680
23.387	11.651
23.403	11.645
23.420	11.667
23.436	11.661
23.453	11.637
23.470	11.655
23.486	11.646
23.503	11.636
23.520	11.645
23.536	11.628
23.553	11.602
23.569	11.627
23.586	11.663
23.603	11.640
23.619	11.638
23.636	11.609
23.653	11.627
23.669	11.702
23.686	11.668
23.702	11.656
23.719	11.665
23.736	11.641
23.752	11.655
23.769	11.645
23.786	11.662
23.802	11.657
23.819	11.658
23.835	11.667
23.852	11.653
23.869	11.662
23.885	11.648
23.902	11.622
23.919	11.649
23.935	11.671
23.952	11.660
23.968	11.637
23.985	11.644
24.002	11.657
24.018	11.675
24.035	11.647
24.051	11.660
24.068	11.622
24.085	11.640
24.101	11.619
24.118	11.647
24.135	11.676
24.151	11.706
24.168	11.670
24.184	11.674
24.201	11.640
24.218	11.643
24.234	11.637
24.251	11.607
24.268	11.611
24.284	11.605
24.301	11.610
24.317	11.653
24.334	11.642
24.351	11.645
24.367	11.655
24.384	11.650
24.401	11.671
24.417	11.665
24.434	11.664
24.450	11.659
24.467	11.655
24.484	11.663
24.500	11.672
24.517	11.685
24.534	11.671
24.550	11.664
24.567	11.661
24.583	11.642
24.600	11.675
24.617	11.658
24.633	11.656
24.650	11.690
24.666	11.634
24.683	11.676
24.700	11.683
24.716	11.695
24.733	11.697
24.750	11.690
24.766	11.686
24.783	11.721
24.799	11.670
24.816	11.674
24.833	11.679
24.849	11.706
24.866	11.678
24.883	11.646
24.899	11.691
24.916	11.667
24.932	11.654
24.949	11.650
24.966	11.624
24.982	11.656
24.999	11.664
25.016	11.669
25.032	11.637
25.049	11.625
25.065	11.674
25.082	11.661
25.099	11.631
25.115	11.612
25.132	11.658
25.149	11.652
25.165	11.651
25.182	11.631
25.198	11.639
25.215	11.673
25.232	11.673
25.248	11.668
25.265	11.651
25.281	11.651
25.298	11.651
25.315	11.668
25.331	11.660
25.348	11.626
25.365	11.657
25.381	11.628
25.398	11.627
25.414	11.658
25.431	11.656
25.448	11.659
25.464	11.647
25.481	11.643
25.498	11.658
25.514	11.666
25.531	11.668
25.547	11.645
25.564	11.642
25.581	11.680
25.597	11.681
25.614	11.679
25.631	11.653
25.647	11.656
25.664	11.645
25.680	11.650
25.697	11.644
25.714	11.634
25.730	11.597
25.747	11.605
25.764	11.584
25.780	11.578
25.797	11.610
25.813	11.621
25.830	11.610
25.847	11.580
25.863	11.589
25.880	11.562
25.896	11.580
25.913	11.596
25.930	11.622
25.946	11.595
25.963	11.596
25.980	11.624
25.996	11.619
26.013	11.644
26.029	11.595
26.046	11.590
26.063	11.563
26.079	11.609
26.096	11.634
26.113	11.607
26.129	11.634
26.146	11.645
26.162	11.585
26.179	11.618
26.196	11.585
26.212	11.584
26.229	11.626
26.246	11.639
26.262	11.570
26.279	11.603
26.295	11.595
26.312	11.588
26.329	11.594
26.345	11.621
26.362	11.589
26.379	11.581
26.395	11.587
26.412	11.573
26.428	11.606
26.445	11.619
26.462	11.571
26.478	11.605
26.495	11.593
26.511	11.585
26.528	11.585
26.545	11.589
26.561	11.593
26.578	11.609
26.595	11.615
26.611	11.616
26.628	11.597
26.644	11.616
26.661	11.620
26.678	11.596
26.694	11.612
26.711	11.603
26.728	10.731
26.744	11.576
26.761	11.561
26.777	11.578
26.794	11.573
26.811	11.577
26.827	11.582
26.844	11.572
26.861	11.560
26.877	11.546
26.894	11.569
26.910	11.581
26.927	11.594
26.944	11.574
26.960	11.606
26.977	11.569
26.994	11.586
27.010	11.571
27.027	11.629
27.043	11.600
27.060	11.604
27.077	11.625
27.093	11.602
27.110	11.637
27.127	11.624
27.143	11.608
27.160	11.586
27.176	11.578
27.193	11.592
27.210	11.615
27.226	11.603
27.243	11.598
27.259	11.596
27.276	11.633
27.293	11.615
27.309	11.560
27.326	11.622
27.343	11.633
27.359	11.594
27.376	11.584
27.392	11.588
27.409	11.597
27.426	11.646
27.442	11.626
27.459	11.593
27.476	11.582
27.492	11.574
27.509	11.602
27.525	11.582
27.542	11.602
27.559	11.623
27.575	11.616
27.592	11.653
27.609	11.617
27.625	11.637
27.642	11.611
27.658	11.603
27.675	11.623
27.692	11.616
27.708	11.597
27.725	11.618
27.742	11.597
27.758	11.597
27.775	11.607
27.791	11.584
27.808	11.577
27.825	11.574
27.841	11.589
27.858	11.577
27.874	11.574
27.891	11.549
27.908	11.535
27.924	11.548
27.941	11.535
27.958	11.534
27.974	11.529
27.991	11.553
28.007	11.587
28.024	11.572
28.041	11.592
28.057	11.585
28.074	11.549
28.091	11.552
28.107	11.564
28.124	11.568
28.140	11.571
28.157	11.579
28.174	11.538
28.190	11.588
28.207	11.559
28.224	11.594
28.240	11.583
28.257	11.585
28.273	11.551
28.290	11.580
28.307	11.573
28.323	11.603
28.340	11.582
28.357	11.571
28.373	11.561
28.390	11.572
28.406	11.558
28.423	11.558
28.440	11.575
28.456	11.595
28.473	11.566
28.489	11.572
28.506	11.609
28.523	11.612
28.539	11.580
28.556	11.586
28.573	11.575
28.589	11.598
28.606	11.604
28.622	11.594
28.639	11.619
28.656	11.560
28.672	11.568
28.689	11.552
28.706	11.610
28.722	11.584
28.739	11.571
28.755	11.591
28.772	11.570
28.789	11.581
28.805	11.584
28.822	11.611
28.839	11.618
28.855	11.596
28.872	11.598
28.888	11.596
28.905	11.552
28.922	11.578
28.938	11.615
28.955	11.594
28.972	11.557
28.988	11.525
29.005	11.564
29.021	11.584
29.038	11.597
29.055	11.612
29.071	11.623
29.088	11.606
29.104	11.634
29.121	11.629
29.138	11.587
29.154	11.604
29.171	11.584
29.188	11.583
29.204	11.582
29.221	11.581
29.237	11.587
29.254	11.573
29.271	11.601
29.287	11.586
29.304	11.582
29.321	11.572
29.337	11.604
29.354	11.627
29.370	11.596
29.387	11.580
29.404	11.602
29.420	11.570
29.437	11.569
29.454	11.551
29.470	11.539
29.487	11.557
29.503	11.556
29.520	11.610
29.537	11.541
29.553	11.584
29.570	11.573
29.587	11.607
29.603	11.575
29.620	11.582
29.636	11.578
29.653	11.569
29.670	11.563
29.686	11.578
29.703	11.584
29.719	11.588
29.736	11.625
29.753	11.598
29.769	11.594
29.786	11.616
29.803	11.582
29.819	11.567
29.836	11.553
29.852	11.565
29.869	11.543
29.886	11.540
29.902	11.525
29.919	11.581
29.936	11.558
29.952	11.544
29.969	11.530
29.985	11.570
30.002	11.565
30.019	11.572
30.035	11.571
30.052	11.595
30.069	11.580
30.085	11.556
30.102	11.573
30.118	11.570
30.135	11.578
30.152	11.569
30.168	11.592
30.185	11.568
30.202	11.567
30.218	11.602
30.235	11.595
30.251	11.582
30.268	11.588
30.285	11.583
30.301	11.574
30.318	11.598
30.334	11.590
30.351	11.588
30.368	11.580
30.384	11.573
30.401	11.586
30.418	11.582
30.434	11.556
30.451	11.595
30.467	11.577
30.484	11.568
30.501	11.575
30.517	11.561
30.534	11.554
30.551	11.558
30.567	11.522
30.584	11.564
30.600	11.538
30.617	11.553
30.634	11.543
30.650	11.534
30.667	11.533
30.684	11.522
30.700	11.545
30.717	11.586
30.733	11.552
30.750	11.581
30.767	11.574
30.783	11.577
30.800	11.591
30.817	11.559
30.833	11.555
30.850	11.556
30.866	11.544
30.883	11.522
30.900	11.500
30.916	11.519
30.933	11.534
30.949	11.503
30.966	11.515
30.983	11.528
30.999	11.515
31.016	11.528
31.033	11.543
31.049	11.531
31.066	11.516
31.082	11.537
31.099	11.506
31.116	11.520
31.132	11.509
31.149	11.529
31.166	11.541
31.182	11.529
31.199	11.540
31.215	11.566
31.232	11.562
31.249	11.564
31.265	11.554
31.282	11.590
31.299	11.574
31.315	11.548
31.332	11.524
31.348	11.530
31.365	11.529
31.382	11.496
31.398	11.519
31.415	11.525
31.432	11.534
31.448	11.559
31.465	11.573
31.481	11.563
31.498	11.588
31.515	11.575
31.531	11.567
31.548	11.544
31.564	11.511
31.581	11.563
31.598	11.554
31.614	11.524
31.631	11.547
31.648	11.533
31.664	11.565
31.681	11.560
31.697	11.575
31.714	11.561
31.731	11.582
31.747	11.599
31.764	11.574
31.781	11.549
31.797	11.553
31.814	11.544
31.830	11.535
31.847	11.539
31.864	11.555
31.880	11.541
31.897	11.568
31.914	11.571
31.930	11.602
31.947	11.577
31.963	11.553
31.980	11.566
31.997	11.573
32.013	11.573
32.030	11.582
32.047	11.548
32.063	11.540
32.080	11.547
32.096	11.556
32.113	11.591
32.130	11.578
32.146	11.605
32.163	11.564
32.179	11.552
32.196	11.582
32.213	11.564
32.229	11.560
32.246	11.565
32.263	11.558
32.279	11.550
32.296	11.550
32.312	11.544
32.329	11.531
32.346	11.538
32.362	11.529
32.379	11.496
32.396	11.518
32.412	11.536
32.429	11.503
32.445	11.546
32.462	11.552
32.479	11.568
32.495	11.584
32.512	11.553
32.529	11.577
32.545	11.564
32.562	11.534
32.578	11.530
32.595	11.541
32.612	11.549
32.628	11.554
32.645	11.558
32.662	11.564
32.678	11.606
32.695	11.565
32.711	11.570
32.728	11.556
32.745	11.569
32.761	11.580
32.778	11.554
32.794	11.557
32.811	11.558
32.828	11.555
32.844	11.545
32.861	11.552
32.878	11.527
32.894	11.554
32.911	11.545
32.927	11.548
32.944	11.557
32.961	11.540
32.977	11.532
32.994	11.545
33.011	11.547
33.027	11.569
33.044	11.563
33.060	11.547
33.077	11.539
33.094	11.519
33.110	11.547
33.127	11.516
33.144	11.510
33.160	11.523
33.177	11.550
33.193	11.533
33.210	11.573
33.227	11.542
33.243	11.570
33.260	11.586
33.277	11.529
33.293	11.527
33.310	11.524
33.326	11.522
33.343	11.550
33.360	11.566
33.376	11.551
33.393	11.543
33.409	11.522
33.426	11.515
33.443	11.538
33.459	11.520
33.476	11.552
33.493	11.540
33.509	11.528
33.526	11.528
33.542	11.486
33.559	11.491
33.576	11.486
33.592	11.542
33.609	11.514
33.626	11.533
33.642	11.542
33.659	11.562
33.675	11.541
33.692	11.566
33.709	11.585
33.725	11.560
33.742	11.549
33.759	11.540
33.775	11.570
33.792	11.559
33.808	11.525
33.825	11.573
33.842	11.546
33.858	11.559
33.875	11.561
33.891	11.558
33.908	11.556
33.925	11.573
33.941	11.544
33.958	11.527
33.975	11.528
33.991	11.549
34.008	11.562
34.024	11.532
34.041	11.546
34.058	11.523
34.074	11.549
34.091	11.547
34.108	11.535
34.124	11.532
34.141	11.493
34.157	11.507
34.174	11.519
34.191	11.515
34.207	11.532
34.224	11.541
34.241	11.476
34.257	11.505
34.274	11.535
34.290	11.544
34.307	11.540
34.324	11.526
34.340	11.523
34.357	11.537
34.374	11.564
34.390	11.524
34.407	11.537
34.423	11.534
34.440	11.502
34.457	11.537
34.473	11.514
34.490	11.547
34.506	11.549
34.523	11.552
34.540	11.524
34.556	11.546
34.573	11.562
34.590	11.532
34.606	11.558
34.623	11.518
34.639	11.510
34.656	11.519
34.673	11.540
34.689	11.550
34.706	11.530
34.723	11.585
34.739	11.570
34.756	11.546
34.772	11.546
34.789	11.525
34.806	11.492
34.822	11.499
34.839	11.507
34.856	11.513
34.872	11.516
34.889	11.517
34.905	11.511
34.922	11.515
34.939	11.488
34.955	11.493
34.972	11.514
34.989	11.495
35.005	11.508
35.022	11.509
35.038	11.513
35.055	11.530
35.072	11.532
35.088	11.521
35.105	11.525
35.121	11.516
35.138	11.546
35.155	11.548
35.171	11.552
35.188	11.573
35.205	11.541
35.221	11.577
35.238	11.532
35.254	11.529
35.271	11.526
35.288	11.518
35.304	11.527
35.321	11.541
35.338	11.537
35.354	11.538
35.371	11.547
35.387	11.533
35.404	11.533
35.421	11.535
35.437	11.547
35.454	11.523
35.471	11.546
35.487	11.553
35.504	11.511
35.520	11.526
35.537	11.523
35.554	11.528
35.570	11.518
35.587	11.520
35.604	11.534
35.620	11.527
35.637	11.539
35.653	11.506
35.670	11.517
35.687	11.535
35.703	11.563
35.720	11.537
35.736	11.526
35.753	11.522
35.770	11.528
35.786	11.529
35.803	11.548
35.820	11.554
35.836	11.548
35.853	11.565
35.869	11.587
35.886	11.550
35.903	11.575
35.919	11.552
35.936	11.559
35.953	11.500
35.969	11.525
35.986	11.516
36.002	11.531
36.019	11.521
36.036	11.563
36.052	11.536
36.069	11.565
36.086	11.518
36.102	11.520
36.119	11.515
36.135	11.550
36.152	11.551
36.169	11.576
36.185	11.556
36.202	11.540
36.219	11.546
36.235	11.532
36.252	11.562
36.268	11.548
36.285	11.556
36.302	11.506
36.318	11.536
36.335	11.538
36.351	11.537
36.368	11.521
36.385	11.532
36.401	11.534
36.418	11.544
36.435	11.542
36.451	11.559
36.468	11.509
36.484	11.530
36.501	11.541
36.518	11.533
36.534	11.517
36.551	11.508
36.568	11.501
36.584	11.497
36.601	11.522
36.617	11.531
36.634	11.500
36.651	11.494
36.667	11.494
36.684	11.489
36.701	11.510
36.717	11.508
36.734	11.517
36.750	11.537
36.767	11.509
36.784	11.515
36.800	11.511
36.817	11.491
36.834	11.507
36.850	11.516
36.867	11.533
36.883	11.543
36.900	11.540
36.917	11.546
36.933	11.517
36.950	11.571
36.966	11.550
36.983	11.520
37.000	11.549
37.016	11.533
37.033	11.533
37.050	11.528
37.066	11.527
37.083	11.532
37.099	11.542
37.116	11.549
37.133	11.533
37.149	11.514
37.166	11.505
37.183	11.517
37.199	11.517
37.216	11.544
37.232	11.507
37.249	11.495
37.266	11.510
37.282	11.545
37.299	11.553
37.316	11.510
37.332	11.544
37.349	11.495
37.365	11.519
37.382	11.483
37.399	11.528
37.415	11.507
37.432	11.475
37.449	11.493
37.465	11.507
37.482	11.471
37.498	11.484
37.515	11.495
37.532	11.502
37.548	11.525
37.565	11.509
37.581	11.534
37.598	11.509
37.615	11.544
37.631	11.512
37.648	11.495
37.665	11.492
37.681	11.511
37.698	11.520
37.714	11.481
37.731	11.508
37.748	11.530
37.764	11.502
37.781	11.528
37.798	11.492
37.814	11.486
37.831	11.523
37.847	11.490
37.864	11.513
37.881	11.524
37.897	11.528
37.914	11.541
37.931	11.517
37.947	11.485
37.964	11.504
37.980	11.513
37.997	11.505
38.014	11.507
38.030	11.472
38.047	11.448
38.064	11.480
38.080	11.486
38.097	11.529
38.113	11.505
38.130	11.511
38.147	11.527
38.163	11.524
38.180	11.475
38.196	11.486
38.213	11.531
38.230	11.479
38.246	11.500
38.263	11.471
38.280	11.491
38.296	11.493
38.313	11.474
38.329	11.525
38.346	11.481
38.363	11.509
38.379	11.459
38.396	11.526
38.413	11.512
38.429	11.491
38.446	11.521
38.462	11.504
38.479	11.527
38.496	11.517
38.512	11.527
38.529	11.501
38.546	11.503
38.562	11.492
38.579	11.530
38.595	11.541
38.612	11.521
38.629	11.519
38.645	11.520
38.662	11.514
38.679	11.497
38.695	11.509
38.712	11.474
38.728	11.487
38.745	11.515
38.762	11.497
38.778	11.522
38.795	11.517
38.811	11.522
38.828	11.520
38.845	11.556
38.861	11.510
38.878	11.507
38.895	11.503
38.911	11.494
38.928	11.527
38.944	11.526
38.961	11.502
38.978	11.520
38.994	11.512
39.011	11.503
39.028	11.514
39.044	11.524
39.061	11.521
39.077	11.510
39.094	11.516
39.111	11.523
39.127	11.508
39.144	11.497
39.161	11.531
39.177	11.506
39.194	11.506
39.210	11.492
39.227	11.518
39.244	11.478
39.260	11.509
39.277	11.473
39.294	11.497
39.310	11.500
39.327	11.475
39.343	11.481
39.360	11.478
39.377	11.472
39.393	11.499
39.410	11.492
39.426	11.479
39.443	11.488
39.460	11.495
39.476	11.490
39.493	11.500
39.510	11.484
39.526	11.521
39.543	11.535
39.559	11.491
39.576	11.525
39.593	11.532
39.609	11.530
39.626	11.499
39.643	11.507
39.659	11.479
39.676	11.524
39.692	11.495
39.709	11.508
39.726	11.478
39.742	11.485
39.759	11.501
39.776	11.515
39.792	11.512
39.809	11.533
39.825	11.554
39.842	11.504
39.859	11.488
39.875	11.501
39.892	11.480
39.909	11.533
39.925	11.499
39.942	11.524
39.958	11.497
39.975	11.529
39.992	11.520
40.008	11.515
40.025	11.511
40.041	11.483
40.058	11.479
40.075	11.487
40.091	11.508
40.108	11.526
40.125	11.523
40.141	11.501
40.158	11.530
40.174	11.513
40.191	11.512
40.208	11.497
40.224	11.505
40.241	11.468
40.258	11.453
40.274	11.505
40.291	11.476
40.307	11.468
40.324	11.513
40.341	11.544
40.357	11.531
40.374	11.510
40.391	11.501
40.407	11.521
40.424	11.530
40.440	11.499
40.457	11.520
40.474	11.517
40.490	11.521
40.507	11.509
40.524	11.477
40.540	11.494
40.557	11.467
40.573	11.486
40.590	11.470
40.607	11.492
40.623	11.491
40.640	11.480
40.656	11.459
40.673	11.471
40.690	11.484
40.706	11.481
40.723	11.464
40.740	11.492
40.756	11.500
40.773	11.496
40.789	11.506
40.806	11.533
40.823	11.488
40.839	11.493
40.856	11.498
40.873	11.519
40.889	11.512
40.906	11.536
40.922	11.490
40.939	11.480
40.956	11.472
40.972	11.496
40.989	11.480
41.006	11.469
41.022	11.492
41.039	11.512
41.055	11.508
41.072	11.537
41.089	11.542
41.105	11.536
41.122	11.530
41.139	11.543
41.155	11.522
41.172	11.524
41.188	11.499
41.205	11.522
41.222	11.500
41.238	11.488
41.255	11.504
41.271	11.521
41.288	11.539
41.305	11.503
41.321	11.534
41.338	11.539
41.355	11.507
41.371	11.509
41.388	11.530
41.404	11.536
41.421	11.535
41.438	11.523
41.454	11.539
41.471	11.553
41.488	11.521
41.504	11.497
41.521	11.536
41.537	11.550
41.554	11.550
41.571	11.524
41.587	11.525
41.604	11.549
41.621	11.520
41.637	11.511
41.654	11.505
41.670	11.486
41.687	11.476
41.704	11.488
41.720	11.471
41.737	11.469
41.754	11.472
41.770	11.466
41.787	11.482
41.803	11.466
41.820	11.476
41.837	11.522
41.853	11.514
41.870	11.509
41.886	11.513
41.903	11.465
41.920	11.524
41.936	11.501
41.953	11.529
41.970	11.508
41.986	11.543
42.003	11.508
42.019	11.515
42.036	11.514
42.053	11.501
42.069	11.475
42.086	11.509
42.103	11.482
42.119	11.489
42.136	11.501
42.152	11.488
42.169	11.483
42.186	11.462
42.202	11.467
42.219	11.472
42.236	11.478
42.252	11.521
42.269	11.507
42.285	11.491
42.302	11.496
42.319	11.458
42.335	11.458
42.352	11.447
42.369	11.525
42.385	11.491
42.402	11.513
42.418	11.519
42.435	11.526
42.452	11.519
42.468	11.516
42.485	11.530
42.501	11.493
42.518	11.523
42.535	11.521
42.551	11.541
42.568	11.534
42.585	11.518
42.601	11.519
42.618	11.450
42.634	11.450
42.651	11.514
42.668	11.488
42.684	11.469
42.701	11.463
42.718	11.511
42.734	11.490
42.751	11.503
42.767	11.473
42.784	11.504
42.801	11.480
42.817	11.522
42.834	11.501
42.851	11.499
42.867	11.472
42.884	11.507
42.900	11.486
42.917	11.472
42.934	11.494
42.950	11.496
42.967	11.474
42.984	11.474
43.000	11.435
43.017	11.433
43.033	11.436
43.050	11.495
43.067	11.478
43.083	11.488
43.100	11.501
43.116	11.462
43.133	11.486
43.150	11.478
43.166	11.453
43.183	11.490
43.200	11.486
43.216	11.475
43.233	11.463
43.249	11.485
43.266	11.474
43.283	11.504
43.299	11.487
43.316	11.557
43.333	11.529
43.349	11.522
43.366	11.507
43.382	11.507
43.399	11.538
43.416	11.508
43.432	11.515
43.449	11.522
43.466	11.532
43.482	11.490
43.499	11.532
43.515	11.522
43.532	11.526
43.549	11.540
43.565	11.525
43.582	11.507
43.599	11.489
43.615	11.498
43.632	11.504
43.648	11.528
43.665	11.509
43.682	11.493
43.698	11.465
43.715	11.469
43.731	11.467
43.748	11.470
43.765	11.474
43.781	11.477
43.798	11.488
43.815	11.456
43.831	11.487
43.848	11.442
43.864	11.444
43.881	11.475
43.898	11.480
43.914	11.483
43.931	11.485
43.948	11.488
43.964	11.497
43.981	11.524
43.997	11.474
44.014	11.465
44.031	11.508
44.047	11.518
44.064	11.513
44.081	11.493
44.097	11.514
44.114	11.487
44.130	11.499
44.147	11.525
44.164	11.487
44.180	11.456
44.197	11.469
44.214	11.492
44.230	11.456
44.247	11.449
44.263	11.433
44.280	11.475
44.297	11.448
44.313	11.493
44.330	11.460
44.346	11.476
44.363	11.475
44.380	11.451
44.396	11.500
44.413	11.474
44.430	11.485
44.446	11.459
44.463	11.451
44.479	11.467
44.496	11.469
44.513	11.464
44.529	11.499
44.546	11.476
44.563	11.476
44.579	11.503
44.596	11.517
44.612	11.487
44.629	11.522
44.646	11.469
44.662	11.454
44.679	11.484
44.696	11.473
44.712	11.479
44.729	11.485
44.745	11.515
44.762	11.496
44.779	11.489
44.795	11.469
44.812	11.465
44.829	11.490
44.845	11.499
44.862	11.491
44.878	11.508
44.895	11.471
44.912	11.463
44.928	11.460
44.945	11.447
44.961	11.490
44.978	11.456
44.995	11.458
45.011	11.469
45.028	11.472
45.045	11.495
45.061	11.462
45.078	11.496
45.094	11.474
45.111	11.463
45.128	11.461
45.144	11.475
45.161	11.499
45.178	11.468
45.194	11.490
45.211	11.487
45.227	11.503
45.244	11.492
45.261	11.477
45.277	11.469
45.294	11.450
45.311	11.484
45.327	11.457
45.344	11.458
45.360	11.479
45.377	11.447
45.394	11.419
45.410	11.456
45.427	11.449
45.444	11.421
45.460	11.492
45.477	11.480
45.493	11.482
45.510	11.496
45.527	11.495
45.543	11.483
45.560	11.476
45.576	11.463
45.593	11.453
45.610	11.460
45.626	11.432
45.643	11.444
45.660	11.446
45.676	11.465
45.693	11.459
45.709	11.461
45.726	11.490
45.743	11.480
45.759	11.444
45.776	11.429
45.793	11.451
45.809	11.474
45.826	11.470
45.842	11.467
45.859	11.501
45.876	11.472
45.892	11.447
45.909	11.486
45.926	11.452
45.942	11.469
45.959	11.485
45.975	11.485
45.992	11.471
46.009	11.478
46.025	11.515
46.042	11.502
46.059	11.497
46.075	11.490
46.092	11.479
46.108	11.511
46.125	11.492
46.142	11.512
46.158	11.466
46.175	11.468
46.191	11.453
46.208	11.421
46.225	11.453
46.241	11.457
46.258	11.427
46.275	11.447
46.291	11.418
46.308	11.423
46.324	11.410
46.341	11.451
46.358	11.469
46.374	11.447
46.391	11.445
46.408	11.494
46.424	11.437
46.441	11.429
46.457	11.447
46.474	11.462
46.491	11.443
46.507	11.442
46.524	11.454
46.541	11.471
46.557	11.470
46.574	11.447
46.590	11.451
46.607	11.442
46.624	11.411
46.640	11.445
46.657	11.447
46.674	11.459
46.690	11.435
46.707	11.437
46.723	11.450
46.740	11.471
46.757	11.461
46.773	11.449
46.790	11.447
46.806	11.457
46.823	11.423
46.840	11.457
46.856	11.430
46.873	11.439
46.890	11.436
46.906	11.409
46.923	11.427
46.939	11.440
46.956	11.460
46.973	11.446
46.989	11.470
47.006	11.496
47.023	11.469
47.039	11.442
47.056	11.457
47.072	11.490
47.089	11.475
47.106	11.468
47.122	11.423
47.139	11.421
47.156	11.435
47.172	11.428
47.189	11.426
47.205	11.440
47.222	11.449
47.239	11.445
47.255	11.469
47.272	11.450
47.289	11.426
47.305	11.442
47.322	11.467
47.338	11.493
47.355	11.491
47.372	11.499
47.388	11.488
47.405	11.486
47.421	11.483
47.438	11.479
47.455	11.454
47.471	11.489
47.488	11.441
47.505	11.460
47.521	11.463
47.538	11.470
47.554	11.488
47.571	11.475
47.588	11.487
47.604	11.522
47.621	11.489
47.638	11.471
47.654	11.456
47.671	11.466
47.687	11.447
47.704	11.479
47.721	11.488
47.737	11.489
47.754	11.479
47.771	11.450
47.787	11.470
47.804	11.470
47.820	11.495
47.837	11.503
47.854	11.506
47.870	11.477
47.887	11.465
47.903	11.490
47.920	11.520
47.937	11.484
47.953	11.477
47.970	11.470
47.987	11.490
48.003	11.466
48.020	11.448
48.036	11.488
48.053	11.495
48.070	11.487
48.086	11.457
48.103	11.471
48.120	11.467
48.136	11.456
48.153	11.444
48.169	11.466
48.186	11.460
48.203	11.464
48.219	11.443
48.236	11.451
48.253	11.482
48.269	11.472
48.286	11.495
48.302	11.490
48.319	11.464
48.336	11.494
48.352	11.465
48.369	11.451
48.386	11.458
48.402	11.502
48.419	11.493
48.435	11.495
48.452	11.464
48.469	11.473
48.485	11.465
48.502	11.476
48.518	11.465
48.535	11.423

