NW 1 Channel 1 Decay	
Time (h)	Current (uA)
0.017	10.444
0.033	11.228
0.050	11.221
0.067	11.228
0.083	11.215
0.100	11.187
0.116	11.215
0.133	11.244
0.150	11.216
0.166	11.230
0.183	11.244
0.200	11.237
0.216	11.229
0.233	11.210
0.249	11.209
0.266	11.182
0.283	11.216
0.299	11.222
0.316	11.203
0.332	11.177
0.349	11.210
0.366	11.176
0.382	11.204
0.399	11.210
0.416	11.219
0.432	11.220
0.449	11.190
0.465	11.239
0.482	11.219
0.499	11.228
0.515	11.212
0.532	11.177
0.549	11.180
0.565	11.159
0.582	11.185
0.598	11.191
0.615	11.204
0.632	11.179
0.648	11.176
0.665	11.185
0.682	11.206
0.698	11.197
0.715	11.223
0.731	11.196
0.748	11.179
0.765	11.222
0.781	11.200
0.798	11.212
0.814	11.174
0.831	11.131
0.848	11.161
0.864	11.133
0.881	11.177
0.898	11.128
0.914	11.118
0.931	11.107
0.947	11.132
0.964	11.111
0.981	11.150
0.997	11.132
1.014	11.148
1.031	11.153
1.047	11.142
1.064	11.158
1.080	11.098
1.097	11.113
1.114	11.124
1.130	11.131
1.147	11.125
1.164	11.116
1.180	11.105
1.197	11.089
1.213	11.120
1.230	11.123
1.247	11.098
1.263	11.123
1.280	11.114
1.297	11.098
1.313	11.126
1.330	11.092
1.346	11.088
1.363	11.105
1.380	11.094
1.396	11.073
1.413	11.088
1.429	11.073
1.446	11.100
1.463	11.082
1.479	11.068
1.496	11.062
1.513	11.057
1.529	11.085
1.546	11.069
1.562	11.028
1.579	11.076
1.596	11.084
1.612	11.072
1.629	11.043
1.646	11.073
1.662	11.084
1.679	11.074
1.695	11.065
1.712	11.084
1.729	11.052
1.745	11.060
1.762	11.032
1.779	11.059
1.795	11.047
1.812	11.026
1.828	11.070
1.845	11.009
1.862	11.016
1.878	11.064
1.895	11.047
1.912	11.064
1.928	11.068
1.945	11.077
1.961	11.026
1.978	11.048
1.995	11.015
2.011	11.004
2.028	11.045
2.044	11.025
2.061	11.027
2.078	11.067
2.094	11.047
2.111	10.983
2.128	11.010
2.144	11.043
2.161	11.045
2.177	11.024
2.194	10.992
2.211	11.041
2.227	11.023
2.244	11.047
2.261	11.020
2.277	11.019
2.294	11.011
2.310	11.014
2.327	10.974
2.344	11.006
2.360	11.024
2.377	10.988
2.394	10.993
2.410	10.988
2.427	11.011
2.443	11.011
2.460	10.999
2.477	11.007
2.493	11.010
2.510	10.975
2.527	10.964
2.543	10.954
2.560	10.991
2.576	10.976
2.593	10.992
2.610	10.975
2.626	10.973
2.643	10.974
2.659	10.966
2.676	10.983
2.693	10.982
2.709	10.981
2.726	11.001
2.743	10.961
2.759	10.967
2.776	11.014
2.792	11.003
2.809	10.997
2.826	10.979
2.842	10.983
2.859	10.987
2.876	10.961
2.892	10.986
2.909	10.984
2.925	10.971
2.942	10.967
2.959	10.944
2.975	10.966
2.992	10.936
3.009	10.975
3.025	10.937
3.042	10.949
3.058	10.961
3.075	10.966
3.092	10.960
3.108	10.954
3.125	10.966
3.142	10.988
3.158	10.918
3.175	10.950
3.191	10.948
3.208	10.960
3.225	10.969
3.241	10.937
3.258	10.923
3.274	10.934
3.291	10.969
3.308	10.948
3.324	10.940
3.341	10.992
3.358	10.959
3.374	10.932
3.391	10.944
3.407	10.946
3.424	10.952
3.441	10.954
3.457	10.944
3.474	10.914
3.491	10.933
3.507	10.900
3.524	10.937
3.540	10.934
3.557	10.917
3.574	10.946
3.590	10.924
3.607	10.892
3.624	10.874
3.640	10.905
3.657	10.882
3.673	10.897
3.690	10.911
3.707	10.906
3.723	10.903
3.740	10.898
3.757	10.878
3.773	10.926
3.790	10.925
3.806	10.948
3.823	10.971
3.840	10.939
3.856	10.933
3.873	10.950
3.889	10.949
3.906	10.917
3.923	10.930
3.939	10.929
3.956	10.945
3.973	10.938
3.989	10.956
4.006	10.932
4.022	10.909
4.039	10.889
4.056	10.892
4.072	10.921
4.089	10.906
4.106	10.889
4.122	10.885
4.139	10.874
4.155	10.879
4.172	10.859
4.189	10.847
4.205	10.818
4.222	10.845
4.239	10.859
4.255	10.856
4.272	10.885
4.288	10.854
4.305	10.868
4.322	10.879
4.338	10.873
4.355	10.862
4.372	10.880
4.388	10.909
4.405	10.876
4.421	10.898
4.438	10.887
4.455	10.888
4.471	10.894
4.488	10.888
4.504	10.879
4.521	10.862
4.538	10.863
4.554	10.881
4.571	10.880
4.588	10.864
4.604	10.887
4.621	10.887
4.637	10.857
4.654	10.885
4.671	10.911
4.687	10.857
4.704	10.863
4.721	10.858
4.737	10.843
4.754	10.868
4.770	10.867
4.787	10.859
4.804	10.849
4.820	10.853
4.837	10.863
4.854	10.855
4.870	10.863
4.887	10.895
4.903	10.866
4.920	10.841
4.937	10.841
4.953	10.822
4.970	10.829
4.987	10.872
5.003	10.855
5.020	10.814
5.036	10.822
5.053	10.818
5.070	10.818
5.086	10.810
5.103	10.829
5.119	10.850
5.136	10.822
5.153	10.846
5.169	10.807
5.186	10.863
5.203	10.852
5.219	10.852
5.236	10.861
5.252	10.858
5.269	10.841
5.286	10.826
5.302	10.822
5.319	10.839
5.336	10.837
5.352	10.863
5.369	10.857
5.385	10.874
5.402	10.893
5.419	10.832
5.435	10.836
5.452	10.835
5.469	10.862
5.485	10.836
5.502	10.861
5.518	10.844
5.535	10.831
5.552	10.845
5.568	10.857
5.585	10.832
5.602	10.863
5.618	10.874
5.635	10.851
5.651	10.841
5.668	10.828
5.685	10.876
5.701	10.826
5.718	10.838
5.734	10.851
5.751	10.850
5.768	10.861
5.784	10.850
5.801	10.848
5.818	10.858
5.834	10.835
5.851	10.840
5.867	10.850
5.884	10.837
5.901	10.821
5.917	10.812
5.934	10.823
5.951	10.816
5.967	10.833
5.984	10.814
6.000	10.835
6.017	10.817
6.034	10.811
6.050	10.813
6.067	10.796
6.084	10.804
6.100	10.793
6.117	10.814
6.133	10.793
6.150	10.792
6.167	10.821
6.183	10.795
6.200	10.824
6.217	10.825
6.233	10.825
6.250	10.844
6.266	10.793
6.283	10.808
6.300	10.785
6.316	10.822
6.333	10.820
6.349	10.804
6.366	10.837
6.383	10.819
6.399	10.824
6.416	10.813
6.433	10.810
6.449	10.802
6.466	10.786
6.482	10.782
6.499	10.806
6.516	10.810
6.532	10.811
6.549	10.816
6.566	10.794
6.582	10.800
6.599	10.801
6.615	10.791
6.632	10.772
6.649	10.770
6.665	10.776
6.682	10.780
6.699	10.762
6.715	10.772
6.732	10.780
6.748	10.747
6.765	10.765
6.782	10.740
6.798	10.754
6.815	10.751
6.832	10.762
6.848	10.757
6.865	10.740
6.881	10.733
6.898	10.765
6.915	10.781
6.931	10.750
6.948	10.790
6.964	10.801
6.981	10.789
6.998	10.794
7.014	10.779
7.031	10.790
7.048	10.778
7.064	10.789
7.081	10.792
7.097	10.792
7.114	10.764
7.131	10.776
7.147	10.768
7.164	10.772
7.181	10.749
7.197	10.756
7.214	10.770
7.230	10.797
7.247	10.753
7.264	10.761
7.280	10.735
7.297	10.729
7.314	10.753
7.330	10.766
7.347	10.765
7.363	10.715
7.380	10.768
7.397	10.783
7.413	10.747
7.430	10.744
7.447	10.733
7.463	10.735
7.480	10.710
7.496	10.708
7.513	10.741
7.530	10.724
7.546	10.722
7.563	10.698
7.579	10.711
7.596	10.711
7.613	10.706
7.629	10.709
7.646	10.730
7.663	10.718
7.679	10.714
7.696	10.706
7.712	10.700
7.729	10.728
7.746	10.735
7.762	10.717
7.779	10.709
7.796	10.715
7.812	10.742
7.829	10.706
7.845	10.677
7.862	10.701
7.879	10.720
7.895	10.717
7.912	10.721
7.929	10.733
7.945	10.721
7.962	10.746
7.978	10.741
7.995	10.731
8.012	10.745
8.028	10.732
8.045	10.731
8.062	10.718
8.078	10.739
8.095	10.726
8.111	10.719
8.128	10.709
8.145	10.715
8.161	10.683
8.178	10.763
8.194	10.756
8.211	10.737
8.228	10.740
8.244	10.718
8.261	10.708
8.278	10.699
8.294	10.688
8.311	10.685
8.327	10.695
8.344	10.716
8.361	10.683
8.377	10.699
8.394	10.697
8.411	10.684
8.427	10.699
8.444	10.713
8.460	10.700
8.477	10.692
8.494	10.729
8.510	10.706
8.527	10.701
8.544	10.689
8.560	10.671
8.577	10.682
8.593	10.692
8.610	10.691
8.627	10.690
8.643	10.717
8.660	10.690
8.677	10.671
8.693	10.665
8.710	10.657
8.726	10.681
8.743	10.673
8.760	10.684
8.776	10.676
8.793	10.632
8.809	10.673
8.826	10.678
8.843	10.648
8.859	10.701
8.876	10.664
8.893	10.669
8.909	10.696
8.926	10.682
8.942	10.676
8.959	10.669
8.976	10.660
8.992	10.677
9.009	10.662
9.026	10.666
9.042	10.653
9.059	10.625
9.075	10.626
9.092	10.618
9.109	10.649
9.125	10.641
9.142	10.637
9.159	10.641
9.175	10.640
9.192	10.658
9.208	10.669
9.225	10.686
9.242	10.675
9.258	10.676
9.275	10.657
9.292	10.616
9.308	10.659
9.325	10.655
9.341	10.659
9.358	10.686
9.375	10.672
9.391	10.667
9.408	10.630
9.424	10.657
9.441	10.674
9.458	10.662
9.474	10.675
9.491	10.644
9.508	10.620
9.524	10.648
9.541	10.671
9.557	10.665
9.574	10.689
9.591	10.694
9.607	10.681
9.624	10.653
9.641	10.682
9.657	10.677
9.674	10.667
9.690	10.686
9.707	10.662
9.724	10.638
9.740	10.655
9.757	10.689
9.774	10.650
9.790	10.653
9.807	10.681
9.823	10.670
9.840	10.700
9.857	10.673
9.873	10.654
9.890	10.666
9.907	10.659
9.923	10.641
9.940	10.682
9.956	10.670
9.973	10.682
9.990	10.697
10.006	10.642
10.023	10.678
10.039	10.679
10.056	10.657
10.073	10.628
10.089	10.641
10.106	10.630
10.123	10.635
10.139	10.680
10.156	10.683
10.172	10.665
10.189	10.677
10.206	10.630
10.222	10.660
10.239	10.637
10.256	10.623
10.272	10.642
10.289	10.644
10.305	10.668
10.322	10.626
10.339	10.664
10.355	10.641
10.372	10.625
10.389	10.595
10.405	10.627
10.422	10.626
10.438	10.648
10.455	10.630
10.472	10.637
10.488	10.616
10.505	10.639
10.522	10.628
10.538	10.634
10.555	10.606
10.571	10.616
10.588	10.642
10.605	10.637
10.621	10.610
10.638	10.626
10.654	10.585
10.671	10.606
10.688	10.606
10.704	10.618
10.721	10.645
10.738	10.662
10.754	10.619
10.771	10.644
10.787	10.583
10.804	10.602
10.821	10.603
10.837	10.606
10.854	10.610
10.871	10.624
10.887	10.629
10.904	10.635
10.920	10.632
10.937	10.656
10.954	10.663
10.970	10.643
10.987	10.625
11.004	10.604
11.020	10.589
11.037	10.597
11.053	10.611
11.070	10.646
11.087	10.618
11.103	10.611
11.120	10.636
11.137	10.644
11.153	10.639
11.170	10.634
11.186	10.628
11.203	10.624
11.220	10.604
11.236	10.649
11.253	10.648
11.269	10.628
11.286	10.605
11.303	10.606
11.319	10.633
11.336	10.601
11.353	10.620
11.369	10.586
11.386	10.605
11.402	10.572
11.419	10.576
11.436	10.578
11.452	10.598
11.469	10.628
11.486	10.613
11.502	10.591
11.519	10.600
11.535	10.610
11.552	10.605
11.569	10.583
11.585	10.607
11.602	10.606
11.619	10.567
11.635	10.575
11.652	10.613
11.668	10.596
11.685	10.556
11.702	10.533
11.718	10.569
11.735	10.549
11.752	10.581
11.768	10.590
11.785	10.575
11.801	10.576
11.818	10.596
11.835	10.600
11.851	10.601
11.868	10.622
11.884	10.565
11.901	10.532
11.918	10.573
11.934	10.537
11.951	10.571
11.968	10.565
11.984	10.586
12.001	10.589
12.017	10.553
12.034	10.541
12.051	10.564
12.067	10.568
12.084	10.588
12.101	10.560
12.117	10.575
12.134	10.562
12.150	10.584
12.167	10.567
12.184	10.548
12.200	10.515
12.217	10.536
12.234	10.532
12.250	10.563
12.267	10.592
12.283	10.550
12.300	10.544
12.317	10.555
12.333	10.550
12.350	10.570
12.367	10.583
12.383	10.559
12.400	10.562
12.416	10.534
12.433	10.567
12.450	10.590
12.466	10.561
12.483	10.544
12.499	10.543
12.516	10.560
12.533	10.553
12.549	10.538
12.566	10.550
12.583	10.535
12.599	10.563
12.616	10.520
12.632	10.561
12.649	10.550
12.666	10.541
12.682	10.538
12.699	10.532
12.716	10.544
12.732	10.566
12.749	10.554
12.765	10.558
12.782	10.580
12.799	10.550
12.815	10.549
12.832	10.567
12.849	10.557
12.865	10.559
12.882	10.568
12.898	10.539
12.915	10.527
12.932	10.541
12.948	10.555
12.965	10.545
12.982	10.535
12.998	10.519
13.015	10.531
13.031	10.532
13.048	10.559
13.065	10.533
13.081	10.524
13.098	10.513
13.114	10.524
13.131	10.524
13.148	10.495
13.164	10.512
13.181	10.491
13.198	10.512
13.214	10.529
13.231	10.544
13.247	10.509
13.264	10.520
13.281	10.511
13.297	10.513
13.314	10.535
13.331	10.548
13.347	10.545
13.364	10.526
13.380	10.523
13.397	10.511
13.414	10.513
13.430	10.524
13.447	10.462
13.464	10.555
13.480	10.550
13.497	10.511
13.513	10.521
13.530	10.528
13.547	10.574
13.563	10.559
13.580	10.556
13.596	10.548
13.613	10.534
13.630	10.507
13.646	10.541
13.663	10.547
13.680	10.542
13.696	10.529
13.713	10.502
13.729	10.528
13.746	10.503
13.763	10.478
13.779	10.477
13.796	10.482
13.813	10.486
13.829	10.492
13.846	10.470
13.862	10.487
13.879	10.501
13.896	10.464
13.912	10.462
13.929	10.466
13.946	10.479
13.962	10.481
13.979	10.471
13.995	10.455
14.012	10.493
14.029	10.490
14.045	10.477
14.062	10.510
14.079	10.510
14.095	10.499
14.112	10.488
14.128	10.471
14.145	10.496
14.162	10.488
14.178	10.488
14.195	10.473
14.211	10.512
14.228	10.517
14.245	10.497
14.261	10.485
14.278	10.459
14.295	10.466
14.311	10.498
14.328	10.475
14.344	10.490
14.361	10.499
14.378	10.505
14.394	10.483
14.411	10.522
14.428	10.478
14.444	10.485
14.461	10.455
14.477	10.454
14.494	10.455
14.511	10.466
14.527	10.448
14.544	10.460
14.561	10.460
14.577	10.457
14.594	10.461
14.610	10.459
14.627	10.467
14.644	10.469
14.660	10.469
14.677	10.474
14.694	10.464
14.710	10.466
14.727	10.459
14.743	10.459
14.760	10.478
14.777	10.444
14.793	10.460
14.810	10.430
14.826	10.420
14.843	10.436
14.860	10.440
14.876	10.475
14.893	10.462
14.910	10.430
14.926	10.448
14.943	10.449
14.959	10.442
14.976	10.425
14.993	10.452
15.009	10.434
15.026	10.416
15.043	10.428
15.059	10.451
15.076	10.466
15.092	10.480
15.109	10.469
15.126	10.446
15.142	10.468
15.159	10.448
15.176	10.463
15.192	10.449
15.209	10.464
15.225	10.441
15.242	10.443
15.259	10.421
15.275	10.439
15.292	10.450
15.309	10.434
15.325	10.470
15.342	10.414
15.358	10.446
15.375	10.408
15.392	10.420
15.408	10.422
15.425	10.439
15.441	10.438
15.458	10.419
15.475	10.452
15.491	10.422
15.508	10.441
15.525	10.460
15.541	10.469
15.558	10.475
15.574	10.439
15.591	10.475
15.608	10.445
15.624	10.452
15.641	10.445
15.658	10.455
15.674	9.823
15.691	10.410
15.707	10.392
15.724	10.390
15.741	10.433
15.757	10.439
15.774	10.400
15.791	10.446
15.807	10.453
15.824	10.451
15.840	10.457
15.857	10.446
15.874	10.440
15.890	10.449
15.907	10.424
15.924	10.413
15.940	10.411
15.957	10.409
15.973	10.440
15.990	10.410
16.007	10.434
16.023	10.446
16.040	10.399
16.057	10.414
16.073	10.403
16.090	10.415
16.106	10.433
16.123	10.381
16.140	10.399
16.156	10.377
16.173	10.414
16.190	10.391
16.206	10.393
16.223	10.400
16.239	10.405
16.256	10.426
16.273	10.429
16.289	10.429
16.306	10.396
16.322	10.411
16.339	10.413
16.356	10.423
16.372	10.397
16.389	10.433
16.406	10.421
16.422	10.408
16.439	10.411
16.455	10.406
16.472	10.392
16.489	10.422
16.505	10.397
16.522	10.428
16.539	10.401
16.555	10.418
16.572	10.428
16.588	10.390
16.605	10.415
16.622	10.423
16.638	10.396
16.655	10.417
16.672	10.404
16.688	10.409
16.705	10.389
16.721	10.437
16.738	10.416
16.755	10.418
16.771	10.393
16.788	10.414
16.805	10.405
16.821	10.428
16.838	10.404
16.854	10.409
16.871	10.410
16.888	10.394
16.904	10.409
16.921	10.400
16.937	10.393
16.954	10.387
16.971	10.430
16.987	10.401
17.004	10.379
17.021	10.386
17.037	10.377
17.054	10.386
17.070	10.387
17.087	10.404
17.104	10.395
17.120	10.376
17.137	10.386
17.154	10.371
17.170	10.357
17.187	10.375
17.203	10.371
17.220	10.371
17.237	10.390
17.253	10.398
17.270	10.388
17.287	10.366
17.303	10.357
17.320	10.361
17.336	10.382
17.353	10.383
17.370	10.386
17.386	10.368
17.403	10.342
17.420	10.367
17.436	10.373
17.453	10.359
17.469	10.360
17.486	10.400
17.503	10.362
17.519	10.368
17.536	10.406
17.552	10.427
17.569	10.386
17.586	10.374
17.602	10.382
17.619	10.378
17.636	10.372
17.652	10.382
17.669	10.383
17.685	10.383
17.702	10.392
17.719	10.380
17.735	10.385
17.752	10.358
17.769	10.351
17.785	10.310
17.802	10.365
17.818	10.336
17.835	10.364
17.852	10.374
17.868	10.356
17.885	10.359
17.902	10.347
17.918	10.341
17.935	10.335
17.951	10.408
17.968	10.449
17.985	10.477
18.001	10.466
18.018	10.458
18.035	10.458
18.051	10.437
18.068	10.467
18.084	10.477
18.101	10.486
18.118	10.493
18.134	10.483
18.151	10.482
18.167	10.462
18.184	10.485
18.201	10.468
18.217	10.470
18.234	10.461
18.251	10.473
18.267	10.491
18.284	10.468
18.300	10.473
18.317	10.457
18.334	10.461
18.350	10.471
18.367	10.481
18.384	10.435
18.400	10.438
18.417	10.438
18.433	10.451
18.450	10.451
18.467	10.487
18.483	10.476
18.500	10.458
18.517	10.477
18.533	10.457
18.550	10.478
18.566	10.484
18.583	10.493
18.600	10.495
18.616	10.473
18.633	10.496
18.650	10.488
18.666	10.424
18.683	10.453
18.699	10.478
18.716	10.442
18.733	10.462
18.749	10.473
18.766	10.467
18.782	10.482
18.799	10.474
18.816	10.440
18.832	10.461
18.849	10.430
18.866	10.429
18.882	10.442
18.899	10.432
18.915	10.432
18.932	10.424
18.949	10.414
18.965	10.464
18.982	10.436
18.999	10.426
19.015	10.413
19.032	10.425
19.048	10.408
19.065	10.417
19.082	10.419
19.098	10.422
19.115	10.441
19.132	10.442
19.148	10.451
19.165	10.448
19.181	10.449
19.198	10.443
19.215	10.432
19.231	10.448
19.248	10.453
19.265	10.460
19.281	10.448
19.298	10.452
19.314	10.423
19.331	10.462
19.348	10.438
19.364	10.470
19.381	10.454
19.397	10.474
19.414	10.464
19.431	10.434
19.447	10.437
19.464	10.420
19.481	10.431
19.497	10.451
19.514	10.425
19.530	10.446
19.547	10.412
19.564	10.434
19.580	10.455
19.597	10.442
19.614	10.429
19.630	10.423
19.647	10.409
19.663	10.417
19.680	10.435
19.697	10.420
19.713	10.448
19.730	10.430
19.747	10.422
19.763	10.422
19.780	10.418
19.796	10.438
19.813	10.429
19.830	10.424
19.846	10.406
19.863	10.417
19.880	10.423
19.896	10.424
19.913	10.444
19.929	10.414
19.946	10.392
19.963	10.406
19.979	10.404
19.996	10.421
20.012	10.399
20.029	10.401
20.046	10.390
20.062	10.374
20.079	10.376
20.096	10.395
20.112	10.413
20.129	10.395
20.145	10.369
20.162	10.400
20.179	10.408
20.195	10.391
20.212	10.423
20.229	10.432
20.245	10.435
20.262	10.390
20.278	10.416
20.295	10.365
20.312	10.427
20.328	10.419
20.345	10.424
20.362	10.405
20.378	10.407
20.395	10.421
20.411	10.409
20.428	10.413
20.445	10.434
20.461	10.426
20.478	10.414
20.494	10.428
20.511	10.404
20.528	10.417
20.544	10.443
20.561	10.414
20.578	10.428
20.594	10.371
20.611	10.416
20.627	10.430
20.644	10.403
20.661	10.387
20.677	10.400
20.694	10.383
20.711	10.430
20.727	10.392
20.744	10.399
20.760	10.380
20.777	10.357
20.794	10.361
20.810	10.388
20.827	10.392
20.844	10.401
20.860	10.410
20.877	10.411
20.893	10.416
20.910	10.399
20.927	10.410
20.943	10.378
20.960	10.379
20.977	10.414
20.993	10.380
21.010	10.412
21.026	10.406
21.043	10.405
21.060	10.411
21.076	10.384
21.093	10.398
21.109	10.401
21.126	10.378
21.143	10.389
21.159	10.374
21.176	10.379
21.193	10.370
21.209	10.376
21.226	10.363
21.242	10.394
21.259	10.365
21.276	10.378
21.292	10.361
21.309	10.363
21.326	10.378
21.342	10.366
21.359	10.357
21.375	10.323
21.392	10.316
21.409	10.346
21.425	10.372
21.442	10.351
21.459	10.335
21.475	10.334
21.492	10.365
21.508	10.341
21.525	10.361
21.542	10.357
21.558	10.337
21.575	10.346
21.592	10.352
21.608	10.349
21.625	10.370
21.641	10.369
21.658	10.381
21.675	10.363
21.691	10.371
21.708	10.335
21.724	10.344
21.741	10.347
21.758	10.348
21.774	10.393
21.791	10.358
21.808	10.352
21.824	10.348
21.841	10.366
21.857	10.337
21.874	10.344
21.891	10.343
21.907	10.361
21.924	10.352
21.941	10.349
21.957	10.373
21.974	10.360
21.990	10.364
22.007	10.350
22.024	10.345
22.040	10.354
22.057	10.321
22.074	10.326
22.090	10.335
22.107	10.341
22.123	10.354
22.140	10.354
22.157	10.358
22.173	10.361
22.190	10.365
22.207	10.348
22.223	10.338
22.240	10.333
22.256	10.339
22.273	10.329
22.290	10.373
22.306	10.337
22.323	10.369
22.339	10.304
22.356	9.729
22.373	10.356
22.389	10.318
22.406	10.340
22.423	10.317
22.439	10.339
22.456	10.338
22.473	10.340
22.489	10.329
22.506	10.344
22.522	10.340
22.539	10.351
22.556	10.338
22.572	10.352
22.589	10.333
22.605	10.329
22.622	10.339
22.639	10.349
22.655	10.336
22.672	10.300
22.689	10.320
22.705	10.294
22.722	10.320
22.738	10.286
22.755	10.333
22.772	10.361
22.788	10.315
22.805	10.303
22.822	10.310
22.838	10.334
22.855	10.327
22.871	10.303
22.888	10.312
22.905	10.337
22.921	10.288
22.938	10.343
22.955	10.346
22.971	10.354
22.988	10.333
23.004	10.368
23.021	10.371
23.038	10.345
23.054	10.373
23.071	10.367
23.088	10.343
23.104	10.348
23.121	10.340
23.137	10.341
23.154	10.293
23.171	10.320
23.187	10.334
23.204	10.394
23.220	10.333
23.237	10.327
23.254	10.349
23.270	10.327
23.287	10.327
23.304	10.350
23.320	10.345
23.337	10.333
23.353	10.329
23.370	10.337
23.387	10.369
23.403	10.345
23.420	10.319
23.437	10.325
23.453	10.335
23.470	10.303
23.486	10.321
23.503	10.303
23.520	10.311
23.536	10.281
23.553	10.302
23.570	10.297
23.586	10.309
23.603	10.286
23.619	10.310
23.636	10.326
23.653	10.349
23.669	10.311
23.686	10.323
23.703	10.327
23.719	10.352
23.736	10.322
23.752	10.318
23.769	10.306
23.786	10.332
23.802	10.330
23.819	10.317
23.835	10.327
23.852	10.312
23.869	10.323
23.885	10.313
23.902	10.315
23.919	10.312
23.935	10.337
23.952	10.324
23.968	10.345
23.985	10.334
24.002	10.314
24.018	10.321
24.035	10.309
24.052	10.283
24.068	10.298
24.085	10.309
24.101	10.329
24.118	10.318
24.135	10.313
24.151	10.331
24.168	10.332
24.185	10.316
24.201	10.346
24.218	10.303
24.234	10.287
24.251	10.278
24.268	10.297
24.284	10.291
24.301	10.301
24.318	10.343
24.334	10.289
24.351	10.321
24.367	10.331
24.384	10.330
24.401	10.280
24.417	10.296
24.434	10.338
24.450	10.329
24.467	10.343
24.484	10.352
24.500	10.331
24.517	10.301
24.534	10.325
24.550	10.308
24.567	10.319
24.583	10.302
24.600	10.264
24.617	10.274
24.633	10.257
24.650	10.256
24.667	10.241
24.683	10.276
24.700	10.279
24.716	10.248
24.733	10.278
24.750	10.287
24.766	10.273
24.783	10.290
24.800	10.296
24.816	10.294
24.833	10.303
24.849	10.283
24.866	10.304
24.883	10.260
24.899	10.275
24.916	10.275
24.933	10.278
24.949	10.276
24.966	10.289
24.982	10.298
24.999	10.268
25.016	10.268
25.032	10.288
25.049	10.258
25.065	10.299
25.082	10.267
25.099	10.246
25.115	10.228
25.132	10.266
25.149	10.265
25.165	10.276
25.182	10.306
25.198	10.289
25.215	10.284
25.232	10.258
25.248	10.289
25.265	10.279
25.282	10.303
25.298	10.284
25.315	10.274
25.331	10.302
25.348	10.298
25.365	10.293
25.381	10.269
25.398	10.300
25.415	10.281
25.431	10.285
25.448	10.301
25.464	10.282
25.481	10.275
25.498	10.269
25.514	10.262
25.531	10.281
25.548	10.264
25.564	10.278
25.581	10.290
25.597	10.293
25.614	10.266
25.631	10.275
25.647	10.274
25.664	10.262
25.680	10.270
25.697	10.269
25.714	10.271
25.730	10.260
25.747	10.277
25.764	10.285
25.780	10.297
25.797	10.332
25.813	10.317
25.830	10.292
25.847	10.265
25.863	10.270
25.880	10.273
25.897	10.289
25.913	10.304
25.930	10.285
25.946	10.307
25.963	10.257
25.980	10.302
25.996	10.284
26.013	10.278
26.030	10.273
26.046	10.286
26.063	10.250
26.079	10.258
26.096	10.278
26.113	10.269
26.129	10.283
26.146	10.246
26.163	10.235
26.179	10.270
26.196	10.255
26.212	10.288
26.229	10.248
26.246	10.263
26.262	10.250
26.279	10.278
26.295	10.277
26.312	10.269
26.329	10.259
26.345	10.250
26.362	10.260
26.379	10.251
26.395	10.265
26.412	10.269
26.428	10.264
26.445	10.245
26.462	10.281
26.478	10.276
26.495	10.257
26.512	10.253
26.528	10.242
26.545	10.257
26.561	10.242
26.578	10.250
26.595	10.253
26.611	10.230
26.628	10.254
26.645	10.244
26.661	10.243
26.678	10.260
26.694	10.229
26.711	10.253
26.728	10.262
26.744	10.276
26.761	10.258
26.778	10.250
26.794	10.244
26.811	10.288
26.827	10.271
26.844	10.286
26.861	10.274
26.877	10.269
26.894	10.268
26.910	10.287
26.927	10.254
26.944	10.249
26.960	10.278
26.977	10.271
26.994	10.283
27.010	10.284
27.027	10.275
27.043	10.282
27.060	10.243
27.077	10.274
27.093	10.299
27.110	10.301
27.127	10.315
27.143	10.310
27.160	10.305
27.176	10.295
27.193	10.294
27.210	10.278
27.226	10.265
27.243	10.275
27.260	10.300
27.276	10.247
27.293	10.270
27.309	10.279
27.326	10.268
27.343	10.304
27.359	10.311
27.376	10.278
27.392	10.294
27.409	10.274
27.426	10.243
27.442	10.248
27.459	10.249
27.476	10.284
27.492	10.289
27.509	10.277
27.525	10.278
27.542	10.259
27.559	10.239
27.575	10.235
27.592	10.234
27.609	10.298
27.625	10.230
27.642	10.251
27.658	10.266
27.675	10.236
27.692	10.232
27.708	10.234
27.725	10.228
27.742	10.220
27.758	10.217
27.775	10.228
27.791	10.215
27.808	10.236
27.825	10.248
27.841	10.260
27.858	10.247
27.875	10.250
27.891	10.261
27.908	10.240
27.924	10.258
27.941	10.257
27.958	10.281
27.974	10.246
27.991	10.253
28.007	10.231
28.024	10.256
28.041	10.256
28.057	10.236
28.074	10.243
28.091	10.252
28.107	10.262
28.124	10.270
28.140	10.279
28.157	10.268
28.174	10.290
28.190	10.281
28.207	10.276
28.224	10.287
28.240	10.261
28.257	10.254
28.273	10.266
28.290	10.249
28.307	10.257
28.323	10.225
28.340	10.250
28.357	10.267
28.373	10.240
28.390	10.212
28.406	10.259
28.423	10.218
28.440	10.231
28.456	10.243
28.473	10.255
28.490	10.254
28.506	10.262
28.523	10.258
28.539	10.235
28.556	10.237
28.573	10.211
28.589	10.229
28.606	10.224
28.622	10.235
28.639	10.237
28.656	10.227
28.672	10.210
28.689	10.214
28.706	10.205
28.722	10.222
28.739	10.218
28.755	10.214
28.772	10.229
28.789	10.237
28.805	10.234
28.822	10.255
28.839	10.247
28.855	10.228
28.872	10.230
28.888	10.193
28.905	10.234
28.922	10.243
28.938	10.247
28.955	10.249
28.972	10.237
28.988	10.243
29.005	10.219
29.021	10.217
29.038	10.193
29.055	10.204
29.071	10.222
29.088	10.197
29.105	10.210
29.121	10.222
29.138	10.246
29.154	10.226
29.171	10.259
29.188	10.237
29.204	10.184
29.221	10.201
29.237	10.237
29.254	10.248
29.271	10.234
29.287	10.208
29.304	10.207
29.321	10.202
29.337	10.209
29.354	10.231
29.370	10.221
29.387	10.249
29.404	10.250
29.420	10.222
29.437	10.226
29.454	10.227
29.470	10.237
29.487	10.231
29.503	10.236
29.520	10.242
29.537	10.238
29.553	10.243
29.570	10.229
29.587	10.232
29.603	10.204
29.620	10.212
29.636	10.240
29.653	10.235
29.670	10.222
29.686	10.219
29.703	10.193
29.720	10.197
29.736	10.214
29.753	10.214
29.769	10.211
29.786	10.185
29.803	10.195
29.819	10.205
29.836	10.224
29.852	10.225
29.869	10.236
29.886	10.231
29.902	10.222
29.919	10.229
29.936	10.195
29.952	10.197
29.969	10.205
29.985	10.205
30.002	10.216
30.019	10.207
30.035	10.227
30.052	10.223
30.069	10.192
30.085	10.182
30.102	10.213
30.118	10.207
30.135	10.204
30.152	10.218
30.168	10.237
30.185	10.212
30.202	10.185
30.218	10.201
30.235	10.185
30.251	10.185
30.268	10.201
30.285	10.169
30.301	10.180
30.318	10.175
30.335	10.192
30.351	10.179
30.368	10.151
30.384	10.172
30.401	10.155
30.418	10.167
30.434	10.174
30.451	10.173
30.467	10.183
30.484	10.188
30.501	10.185
30.517	10.184
30.534	10.167
30.551	10.157
30.567	10.149
30.584	10.191
30.600	10.205
30.617	10.211
30.634	10.191
30.650	10.210
30.667	10.188
30.684	10.205
30.700	10.185
30.717	10.154
30.733	10.183
30.750	10.167
30.767	10.188
30.783	10.179
30.800	10.174
30.817	10.187
30.833	10.209
30.850	10.189
30.866	10.198
30.883	10.211
30.900	10.192
30.916	10.195
30.933	10.152
30.950	10.158
30.966	10.225
30.983	10.188
30.999	10.203
31.016	10.197
31.033	10.158
31.049	10.148
31.066	10.138
31.082	10.125
31.099	10.140
31.116	10.151
31.132	10.156
31.149	10.166
31.166	10.169
31.182	10.207
31.199	10.210
31.215	10.195
31.232	10.188
31.249	10.159
31.265	10.175
31.282	10.134
31.299	10.138
31.315	10.166
31.332	10.164
31.348	10.159
31.365	10.194
31.382	10.157
31.398	10.147
31.415	10.143
31.432	10.161
31.448	10.175
31.465	10.162
31.481	10.142
31.498	10.171
31.515	10.177
31.531	10.178
31.548	10.161
31.565	10.167
31.581	10.171
31.598	10.185
31.614	10.176
31.631	10.175
31.648	10.172
31.664	10.154
31.681	10.182
31.697	10.183
31.714	10.168
31.731	10.159
31.747	10.174
31.764	10.184
31.781	10.182
31.797	10.182
31.814	10.161
31.830	10.181
31.847	10.168
31.864	10.162
31.880	10.155
31.897	10.158
31.914	10.165
31.930	10.146
31.947	10.141
31.963	10.124
31.980	10.126
31.997	10.123
32.013	10.126
32.030	10.119
32.047	10.149
32.063	10.162
32.080	10.159
32.096	10.166
32.113	10.149
32.130	10.148
32.146	10.164
32.163	10.158
32.180	10.169
32.196	10.174
32.213	10.163
32.229	10.149
32.246	10.170
32.263	10.203
32.279	10.158
32.296	10.164
32.312	10.149
32.329	10.135
32.346	10.136
32.362	10.123
32.379	10.106
32.396	10.136
32.412	10.131
32.429	10.165
32.445	10.142
32.462	10.134
32.479	10.144
32.495	10.134
32.512	10.147
32.529	10.141
32.545	10.138
32.562	10.157
32.578	10.175
32.595	10.164
32.612	10.151
32.628	10.132
32.645	10.159
32.662	10.167
32.678	10.171
32.695	10.168
32.711	10.175
32.728	10.178
32.745	10.147
32.761	10.108
32.778	10.148
32.795	10.125
32.811	10.146
32.828	10.127
32.844	10.159
32.861	10.143
32.878	10.157
32.894	10.149
32.911	10.175
32.927	10.154
32.944	10.161
32.961	10.147
32.977	10.163
32.994	10.112
33.011	10.170
33.027	10.139
33.044	10.157
33.060	10.135
33.077	10.153
33.094	10.171
33.110	10.150
33.127	10.157
33.144	10.124
33.160	10.151
33.177	10.153
33.193	10.167
33.210	10.160
33.227	10.115
33.243	10.147
33.260	10.162
33.277	10.162
33.293	10.163
33.310	10.161
33.326	10.156
33.343	10.151
33.360	10.130
33.376	10.167
33.393	10.161
33.410	10.164
33.426	10.134
33.443	10.155
33.459	10.139
33.476	10.126
33.493	10.123
33.509	10.134
33.526	10.119
33.542	10.132
33.559	10.167
33.576	10.154
33.592	10.170
33.609	10.147
33.626	10.125
33.642	10.130
33.659	10.150
33.675	10.114
33.692	10.142
33.709	10.113
33.725	10.142
33.742	10.133
33.759	10.118
33.775	10.159
33.792	10.141
33.808	10.166
33.825	10.130
33.842	10.151
33.858	10.123
33.875	10.149
33.892	10.160
33.908	10.127
33.925	10.112
33.941	10.114
33.958	10.144
33.975	10.133
33.991	10.116
34.008	10.122
34.025	10.116
34.041	10.097
34.058	10.138
34.074	10.125
34.091	10.121
34.108	10.102
34.124	10.108
34.141	10.126
34.157	10.154
34.174	10.147
34.191	10.148
34.207	10.143
34.224	10.171
34.241	10.182
34.257	10.132
34.274	10.132
34.290	10.119
34.307	10.134
34.324	10.143
34.340	10.102
34.357	10.127
34.374	10.096
34.390	10.108
34.407	10.126
34.423	10.118
34.440	10.099
34.457	10.126
34.473	10.138
34.490	10.134
34.507	10.127
34.523	10.092
34.540	10.094
34.556	10.098
34.573	10.113
34.590	10.101
34.606	10.104
34.623	10.145
34.640	10.142
34.656	10.124
34.673	10.106
34.689	10.114
34.706	10.126
34.723	10.131
34.739	10.152
34.756	10.144
34.772	10.127
34.789	10.116
34.806	10.131
34.822	10.138
34.839	10.109
34.856	10.116
34.872	10.118
34.889	10.098
34.905	10.099
34.922	10.106
34.939	10.103
34.955	10.106
34.972	10.105
34.989	10.096
35.005	10.112
35.022	10.115
35.038	10.144
35.055	10.131
35.072	10.145
35.088	10.127
35.105	10.114
35.122	10.131
35.138	10.116
35.155	10.138
35.171	10.123
35.188	10.120
35.205	10.088
35.221	10.076
35.238	10.094
35.255	10.076
35.271	10.082
35.288	10.056
35.304	10.083
35.321	10.086
35.338	10.096
35.354	10.068
35.371	10.087
35.387	10.128
35.404	10.074
35.421	10.107
35.437	10.081
35.454	10.074
35.471	10.043
35.487	10.095
35.504	10.081
35.520	10.086
35.537	10.081
35.554	10.110
35.570	10.077
35.587	10.089
35.604	10.091
35.620	10.106
35.637	10.101
35.653	10.093
35.670	10.107
35.687	10.119
35.703	10.095
35.720	10.112
35.737	10.124
35.753	10.152
35.770	10.155
35.786	10.156
35.803	10.144
35.820	10.123
35.836	10.122
35.853	10.115
35.870	10.090
35.886	10.097
35.903	10.081
35.919	10.082
35.936	10.107
35.953	10.104
35.969	10.107
35.986	10.076
36.002	10.070
36.019	10.080
36.036	10.081
36.052	10.096
36.069	10.072
36.086	10.113
36.102	10.071
36.119	10.091
36.135	10.066
36.152	10.049
36.169	10.102
36.185	10.103
36.202	10.100
36.219	10.101
36.235	10.089
36.252	10.096
36.268	10.107
36.285	10.092
36.302	10.084
36.318	10.100
36.335	10.079
36.352	10.115
36.368	10.115
36.385	10.107
36.401	10.120
36.418	10.106
36.435	10.119
36.451	10.121
36.468	10.103
36.485	10.102
36.501	10.125
36.518	10.126
36.534	10.113
36.551	10.122
36.568	10.110
36.584	10.098
36.601	10.065
36.617	10.097
36.634	10.091
36.651	10.122
36.667	10.099
36.684	10.085
36.701	10.108
36.717	10.101
36.734	10.104
36.750	10.101
36.767	10.118
36.784	10.098
36.800	10.090
36.817	10.067
36.834	10.107
36.850	10.099
36.867	10.110
36.883	10.090
36.900	10.102
36.917	10.103
36.933	10.102
36.950	10.049
36.967	10.053
36.983	10.112
37.000	10.098
37.016	10.086
37.033	10.062
37.050	10.073
37.066	10.110
37.083	10.108
37.100	10.094
37.116	10.076
37.133	10.107
37.149	10.096
37.166	10.093
37.183	10.097
37.199	10.072
37.216	10.103
37.232	10.086
37.249	10.118
37.266	10.116
37.282	10.112
37.299	10.083
37.316	10.119
37.332	10.105
37.349	10.094
37.365	10.109
37.382	10.114
37.399	10.088
37.415	10.058
37.432	10.091
37.449	10.068
37.465	10.052
37.482	10.063
37.498	10.050
37.515	10.098
37.532	10.104
37.548	10.104
37.565	10.109
37.582	10.116
37.598	10.096
37.615	10.101
37.631	10.095
37.648	10.061
37.665	10.098
37.681	10.084
37.698	10.074
37.715	10.040
37.731	10.101
37.748	10.076
37.764	10.049
37.781	10.038
37.798	10.066
37.814	10.059
37.831	10.032
37.847	10.050
37.864	10.064
37.881	10.062
37.897	10.062
37.914	10.055
37.931	10.042
37.947	10.033
37.964	10.034
37.980	10.052
37.997	10.082
38.014	10.078
38.030	10.037
38.047	10.067
38.064	10.065
38.080	10.083
38.097	10.081
38.113	10.080
38.130	10.091
38.147	10.095
38.163	10.117
38.180	10.077
38.197	10.068
38.213	10.083
38.230	10.071
38.246	10.067
38.263	10.060
38.280	10.114
38.296	10.105
38.313	10.090
38.330	10.084
38.346	10.064
38.363	10.092
38.379	10.066
38.396	10.087
38.413	10.065
38.429	10.071
38.446	10.042
38.462	10.061
38.479	10.081
38.496	10.052
38.512	10.075
38.529	10.064
38.546	10.037
38.562	10.042
38.579	10.065
38.595	10.018
38.612	10.023
38.629	10.034
38.645	10.053
38.662	10.041
38.679	10.053
38.695	10.070
38.712	10.067
38.728	10.064
38.745	10.064
38.762	10.067
38.778	10.067
38.795	10.094
38.812	10.092
38.828	10.056
38.845	10.037
38.861	10.049
38.878	10.056
38.895	10.039
38.911	10.051
38.928	10.061
38.945	10.049
38.961	10.057
38.978	10.044
38.994	10.078
39.011	10.046
39.028	10.047
39.044	10.052
39.061	10.051
39.077	10.036
39.094	10.025
39.111	10.031
39.127	10.048
39.144	10.023
39.161	10.037
39.177	10.062
39.194	10.060
39.210	10.056
39.227	10.055
39.244	10.043
39.260	10.062
39.277	10.031
39.294	10.074
39.310	10.027
39.327	10.062
39.343	10.045
39.360	10.071
39.377	10.060
39.393	10.042
39.410	10.045
39.427	10.032
39.443	10.010
39.460	10.024
39.476	10.058
39.493	10.055
39.510	10.051
39.526	10.032
39.543	10.047
39.560	10.067
39.576	10.049
39.593	10.074
39.609	10.081
39.626	10.048
39.643	10.029
39.659	10.008
39.676	10.030
39.692	10.044
39.709	10.035
39.726	10.069
39.742	10.053
39.759	10.053
39.776	10.013
39.792	10.049
39.809	10.039
39.825	10.040
39.842	10.050
39.859	10.043
39.875	10.052
39.892	10.050
39.909	10.054
39.925	10.038
39.942	10.083
39.958	10.040
39.975	10.034
39.992	9.998
40.008	10.057
40.025	10.034
40.042	10.041
40.058	10.053
40.075	10.074
40.091	10.090
40.108	10.059
40.125	10.061
40.141	10.059
40.158	10.058
40.175	10.039
40.191	10.051
40.208	10.042
40.224	10.052
40.241	10.043
40.258	10.020
40.274	10.070
40.291	10.039
40.307	10.021
40.324	10.009
40.341	10.028
40.357	10.016
40.374	10.025
40.391	10.055
40.407	10.024
40.424	10.023
40.440	10.038
40.457	10.039
40.474	10.028
40.490	10.065
40.507	10.035
40.524	10.042
40.540	10.050
40.557	10.052
40.573	10.059
40.590	10.076
40.607	10.062
40.623	10.059
40.640	10.071
40.657	10.063
40.673	10.038
40.690	10.053
40.706	10.038
40.723	10.050
40.740	10.032
40.756	10.014
40.773	10.032
40.789	10.001
40.806	9.998
40.823	10.022
40.839	10.017
40.856	10.026
40.873	10.014
40.889	10.013
40.906	10.019
40.922	10.019
40.939	10.037
40.956	10.004
40.972	10.027
40.989	10.039
41.006	10.070
41.022	10.030
41.039	10.011
41.055	10.023
41.072	10.005
41.089	10.010
41.105	10.022
41.122	10.041
41.139	10.037
41.155	10.030
41.172	10.038
41.188	10.012
41.205	10.001
41.222	10.032
41.238	10.018
41.255	10.011
41.272	10.003
41.288	10.030
41.305	10.023
41.321	10.014
41.338	10.029
41.355	10.010
41.371	10.020
41.388	10.021
41.404	10.028
41.421	10.021
41.438	10.001
41.454	10.012
41.471	10.012
41.488	10.020
41.504	10.015
41.521	10.004
41.537	9.999
41.554	9.957
41.571	10.008
41.587	10.018
41.604	9.981
41.621	10.008
41.637	9.990
41.654	9.988
41.670	10.018
41.687	10.023
41.704	10.008
41.720	9.989
41.737	10.017
41.754	10.014
41.770	9.994
41.787	10.003
41.803	9.999
41.820	10.004
41.837	10.020
41.853	9.992
41.870	9.993
41.887	10.004
41.903	10.009
41.920	10.012
41.936	10.003
41.953	10.026
41.970	10.023
41.986	10.029
42.003	10.011
42.019	10.025
42.036	10.034
42.053	10.034
42.069	10.032
42.086	10.045
42.103	10.037
42.119	10.016
42.136	10.018
42.152	9.987
42.169	9.981
42.186	10.009
42.202	10.006
42.219	10.008
42.236	9.979
42.252	10.024
42.269	10.023
42.285	10.012
42.302	10.038
42.319	10.027
42.335	10.015
42.352	10.037
42.369	10.006
42.385	9.999
42.402	10.048
42.418	10.019
42.435	10.020
42.452	9.994
42.468	10.033
42.485	10.019
42.502	10.021
42.518	10.022
42.535	9.993
42.551	10.009
42.568	9.996
42.585	9.999
42.601	10.003
42.618	10.006
42.634	9.986
42.651	9.993
42.668	9.986
42.684	9.998
42.701	10.016
42.718	10.029
42.734	9.993
42.751	10.001
42.767	9.962
42.784	9.974
42.801	10.025
42.817	10.003
42.834	9.980
42.851	9.983
42.867	10.012
42.884	9.968
42.900	9.997
42.917	10.008
42.934	10.016
42.950	9.967
42.967	9.997
42.984	10.003
43.000	9.969
43.017	9.990
43.033	10.006
43.050	10.002
43.067	9.994
43.083	10.028
43.100	10.013
43.117	10.025
43.133	10.013
43.150	10.016
43.166	9.980
43.183	10.020
43.200	9.976
43.216	10.002
43.233	9.997
43.249	9.991
43.266	9.963
43.283	9.983
43.299	9.993
43.316	9.984
43.333	9.987
43.349	9.995
43.366	9.997
43.382	9.959
43.399	9.964
43.416	10.007
43.432	9.993
43.449	10.006
43.466	10.005
43.482	9.968
43.499	9.986
43.515	9.978
43.532	9.994
43.549	9.968
43.565	9.988
43.582	9.988
43.599	10.008
43.615	9.995
43.632	9.992
43.648	9.989
43.665	10.011
43.682	9.995
43.698	9.999
43.715	9.985
43.732	9.992
43.748	9.990
43.765	9.983
43.781	10.000
43.798	9.970
43.815	9.998
43.831	9.966
43.848	9.974
43.864	9.951
43.881	9.979
43.898	9.966
43.914	9.973
43.931	9.959
43.948	9.970
43.964	9.927
43.981	9.949
43.997	9.967
44.014	9.972
44.031	9.969
44.047	9.969
44.064	9.954
44.081	9.996
44.097	9.984
44.114	9.987
44.130	9.984
44.147	9.997
44.164	9.989
44.180	9.993
44.197	9.996
44.214	9.956
44.230	10.008
44.247	9.980
44.263	9.960
44.280	9.976
44.297	9.985
44.313	9.968
44.330	9.985
44.347	10.005
44.363	9.963
44.380	9.980
44.396	9.948
44.413	9.970
44.430	9.964
44.446	9.982
44.463	9.968
44.479	9.952
44.496	9.986
44.513	9.982
44.529	9.968
44.546	9.949
44.563	9.951
44.579	9.987
44.596	9.974
44.612	9.975
44.629	9.959
44.646	9.956
44.662	9.957
44.679	9.960
44.696	9.964
44.712	9.985
44.729	9.937
44.745	9.947
44.762	9.936
44.779	9.945
44.795	9.932
44.812	9.955
44.829	9.965
44.845	9.966
44.862	9.956
44.878	9.942
44.895	9.943
44.912	9.974
44.928	9.931
44.945	9.984
44.962	9.968
44.978	9.957
44.995	9.967
45.011	9.934
45.028	9.964
45.045	9.978
45.061	9.956
45.078	9.978
45.094	9.953
45.111	9.971
45.128	9.976
45.144	9.919
45.161	9.914
45.178	9.945
45.194	9.931
45.211	9.938
45.227	9.950
45.244	9.939
45.261	9.937
45.277	9.929
45.294	9.940
45.311	9.962
45.327	9.930
45.344	9.918
45.360	9.910
45.377	9.922
45.394	9.952
45.410	9.943
45.427	9.940
45.444	9.938
45.460	9.905
45.477	9.941
45.493	9.916
45.510	9.915
45.527	9.917
45.543	9.905
45.560	9.935
45.577	9.926
45.593	9.937
45.610	9.944
45.626	9.912
45.643	9.907
45.660	9.917
45.676	9.935
45.693	9.956
45.709	9.928
45.726	9.905
45.743	9.913
45.759	9.915
45.776	9.928
45.793	9.905
45.809	9.905
45.826	9.929
45.842	9.930
45.859	9.952
45.876	9.942
45.892	9.958
45.909	9.936
45.926	9.942
45.942	9.933
45.959	9.955
45.975	9.907
45.992	9.950
46.009	9.972
46.025	9.960
46.042	9.942
46.059	9.956
46.075	9.954
46.092	9.963
46.108	9.958
46.125	9.943
46.142	9.937
46.158	9.937
46.175	9.919
46.192	9.963
46.208	9.937
46.225	9.932
46.241	9.952
46.258	9.960
46.275	9.945
46.291	9.936
46.308	9.931
46.324	9.928
46.341	9.943
46.358	9.928
46.374	9.912
46.391	9.976
46.408	9.940
46.424	9.972
46.441	9.946
46.457	9.951
46.474	9.939
46.491	9.935
46.507	9.942
46.524	9.929
46.541	9.928
46.557	9.905
46.574	9.895
46.590	9.934
46.607	9.937
46.624	9.908
46.640	9.904
46.657	9.913
46.674	9.875
46.690	9.894
46.707	9.940
46.723	9.952
46.740	9.955
46.757	9.934
46.773	9.952
46.790	9.961
46.807	9.922
46.823	9.934
46.840	9.950
46.856	9.946
46.873	9.954
46.890	9.934
46.906	9.939
46.923	9.961
46.939	9.939
46.956	9.951
46.973	9.966
46.989	9.986
47.006	9.972
47.023	9.963
47.039	9.937
47.056	9.955
47.072	9.960
47.089	9.959
47.106	9.944
47.122	9.956
47.139	9.953
47.156	9.911
47.172	9.934
47.189	9.911
47.205	9.932
47.222	9.914
47.239	9.909
47.255	9.930
47.272	9.930
47.289	9.907
47.305	9.913
47.322	9.939
47.338	9.924
47.355	9.920
47.372	9.908
47.388	9.924
47.405	9.926
47.422	9.909
47.438	9.918
47.455	9.941
47.471	9.932
47.488	9.961
47.505	9.941
47.521	9.929
47.538	9.933
47.554	9.923
47.571	9.927
47.588	9.921
47.604	9.905
47.621	9.891
47.638	9.930
47.654	9.908
47.671	9.896
47.687	9.913
47.704	9.918
47.721	9.921
47.737	9.926
47.754	9.925
47.771	9.930
47.787	9.930
47.804	9.919
47.820	9.944
47.837	9.929
47.854	9.955
47.870	9.926
47.887	9.896
47.904	9.889
47.920	9.934
47.937	9.905
47.953	9.919
47.970	9.888
47.987	9.929
48.003	9.930
48.020	9.917
48.037	9.910
48.053	9.904
48.070	9.916
48.086	9.901
48.103	9.923
48.120	9.916
48.136	9.925
48.153	9.940
48.169	9.923
48.186	9.907
48.203	9.904
48.219	9.928
48.236	9.897
48.253	9.910
48.269	9.920
48.286	9.923
48.302	9.882
48.319	9.876
48.336	9.884
48.352	9.914
48.369	9.877
48.386	9.905
48.402	9.894
48.419	9.921
48.435	9.916
48.452	9.879
48.469	9.909
48.485	9.920
48.502	9.923
48.519	9.934
48.535	9.933
48.552	9.911
48.568	9.890
48.585	9.878
48.602	9.875
48.618	9.874
48.635	9.875
48.652	9.907
48.668	9.907
48.685	9.929
48.701	9.920
48.718	9.910
48.735	9.899
48.751	9.935
48.768	9.924
48.784	9.926
48.801	9.942
48.818	9.916
48.834	9.919
48.851	9.922
48.868	9.897
48.884	9.866
48.901	9.897
48.917	9.903
48.934	9.902
48.951	9.880
48.967	9.846
48.984	9.864
49.001	9.881
49.017	9.895
49.034	9.845
49.050	9.883
49.067	9.914
49.084	9.898
49.100	9.894
49.117	9.890
49.134	9.901
49.150	9.907
49.167	9.915
49.183	9.938
49.200	9.883
49.217	9.902
49.233	9.889
49.250	9.901
49.267	9.876
49.283	9.870
49.300	9.894
49.316	9.903
49.333	9.918
49.350	9.898
49.366	9.895
49.383	9.923
49.399	9.906
49.416	9.918
49.433	9.910
49.449	9.878
49.466	9.893
49.483	9.908
49.499	9.883
49.516	9.922
49.532	9.896
49.549	9.905
49.566	9.873
49.582	9.884
49.599	9.886
49.616	9.902
49.632	9.909
49.649	9.923
49.665	9.923
49.682	9.886
49.699	9.920
49.715	9.897
49.732	9.899
49.749	9.917
49.765	9.927
49.782	9.914
49.798	9.908
49.815	9.888
49.832	9.902
49.848	9.874
49.865	9.894
49.882	9.886
49.898	9.879
49.915	9.889
49.931	9.896
49.948	9.917
49.965	9.913
49.981	9.894
49.998	9.928
50.014	9.896
50.031	9.904
50.048	9.908
50.064	9.907
50.081	9.895
50.098	9.923
50.114	9.921
50.131	9.933
50.147	9.898
50.164	9.901
50.181	9.892
50.197	9.886
50.214	9.871
50.231	9.853
50.247	9.899
50.264	9.865
50.280	9.878
50.297	9.884
50.314	9.877
50.330	9.869
50.347	9.879
50.364	9.875
50.380	9.865
50.397	9.898
50.413	9.907
50.430	9.868
50.447	9.922
50.463	9.888
50.480	9.897
50.497	9.870
50.513	9.892
50.530	9.910
50.546	9.923
50.563	9.926
50.580	9.903
50.596	9.919
50.613	9.887
50.629	9.879
50.646	9.877
50.663	9.913
50.679	9.902
50.696	9.895
50.713	9.878
50.729	9.883
50.746	9.894
50.762	9.886
50.779	9.865
50.796	9.875
50.812	9.890
50.829	9.892
50.846	9.881
50.862	9.874
50.879	9.879
50.895	9.861
50.912	9.849
50.929	9.854
50.945	9.844
50.962	9.842
50.979	9.882
50.995	9.876
51.012	9.923
51.028	9.878
51.045	9.862
51.062	9.870
51.078	9.859
51.095	9.855
51.112	9.870
51.128	9.876
51.145	9.860
51.161	9.847
51.178	9.877
51.195	9.856
51.211	9.853
51.228	9.867
51.244	9.886
51.261	9.894
51.278	9.921
51.294	9.892
51.311	9.877
51.328	9.877
51.344	9.889
51.361	9.903
51.377	9.903
51.394	9.897
51.411	9.883
51.427	9.879
51.444	9.891
51.461	9.877
51.477	9.916
51.494	9.894
51.510	9.888
51.527	9.850
51.544	9.876
51.560	9.859
51.577	9.855
51.594	9.861
51.610	9.877
51.627	9.867
51.643	9.885
51.660	9.844
51.677	9.865
51.693	9.870
51.710	9.883
51.727	9.879
51.743	9.868
51.760	9.868
51.776	9.862
51.793	9.886
51.810	9.852
51.826	9.863
51.843	9.852
51.859	9.883
51.876	9.880
51.893	9.879
51.909	9.862
51.926	9.864
51.943	9.864
51.959	9.910
51.976	9.889
51.992	9.868
52.009	9.876
52.026	9.849
52.042	9.849
52.059	9.870
52.076	9.875
52.092	9.859
52.109	9.868
52.125	9.875
52.142	9.887
52.159	9.860
52.175	9.898
52.192	9.888
52.209	9.869
52.225	9.886
52.242	9.861
52.258	9.911
52.275	9.851
52.292	9.863
52.308	9.849
52.325	9.870
52.342	9.852
52.358	9.873
52.375	9.891
52.391	9.877
52.408	9.905
52.425	9.875
52.441	9.896
52.458	9.859
52.474	9.877
52.491	9.864
52.508	9.876
52.524	9.883
52.541	9.873
52.558	9.867
52.574	9.878
52.591	9.863
52.607	9.874
52.624	9.866
52.641	9.845
52.657	9.885
52.674	9.859
52.691	9.875
52.707	9.838
52.724	9.856
52.740	9.868
52.757	9.836
52.774	9.851
52.790	9.817
52.807	9.848
52.824	9.846
52.840	9.859
52.857	9.849
52.873	9.814
52.890	9.835
52.907	9.818
52.923	9.837
52.940	9.842
52.957	9.834
52.973	9.837
52.990	9.851
53.006	9.848
53.023	9.843
53.040	9.840
53.056	9.849
53.073	9.849
53.089	9.847
53.106	9.843
53.123	9.832
53.139	9.825
53.156	9.853
53.173	9.839
53.189	9.839
53.206	9.839
53.222	9.826
53.239	9.851
53.256	9.821
53.272	9.835
53.289	9.833
53.306	9.826
53.322	9.852
53.339	9.831
53.355	9.839
53.372	9.831
53.389	9.847
53.405	9.836
53.422	9.808
53.439	9.837
53.455	9.841
53.472	9.817
53.488	9.833
53.505	9.853
53.522	9.849
53.538	9.841
53.555	9.847
53.572	9.847
53.588	9.840
53.605	9.837
53.621	9.826
53.638	9.835
53.655	9.848
53.671	9.830
53.688	9.861
53.704	9.838
53.721	9.857
53.738	9.869
53.754	9.867
53.771	9.858
53.788	9.839
53.804	9.808
53.821	9.801
53.837	9.836
53.854	9.847
53.871	9.839
53.887	9.874
53.904	9.828
53.921	9.808
53.937	9.813
53.954	9.849
53.970	9.819
53.987	9.840
54.004	9.811
54.020	9.840
54.037	9.850
54.054	9.833
54.070	9.853
54.087	9.840
54.103	9.847
54.120	9.825
54.137	9.818
54.153	9.846
54.170	9.826
54.186	9.821
54.203	9.826
54.220	9.840
54.236	9.833
54.253	9.870
54.270	9.838
54.286	9.862
54.303	9.859
54.319	9.834
54.336	9.852
54.353	9.816
54.369	9.804
54.386	9.787
54.403	9.812
54.419	9.816
54.436	9.813
54.452	9.820
54.469	9.839
54.486	9.857
54.502	9.839
54.519	9.837
54.536	9.837
54.552	9.820
54.569	9.815
54.585	9.801
54.602	9.844
54.619	9.815
54.635	9.792
54.652	9.818
54.669	9.834
54.685	9.799
54.702	9.831
54.718	9.826
54.735	9.823
54.752	9.795
54.768	9.848
54.785	9.843
54.801	9.846
54.818	9.871
54.835	9.830
54.851	9.853
54.868	9.837
54.885	9.837
54.901	9.808
54.918	9.813
54.934	9.844
54.951	9.845
54.968	9.815
54.984	9.822
55.001	9.813
55.018	9.796
55.034	9.827
55.051	9.826
55.067	9.802
55.084	9.795
55.101	9.822
55.117	9.807
55.134	9.795
55.151	9.831
55.167	9.811
55.184	9.838
55.200	9.839
55.217	9.802
55.234	9.842
55.250	9.841
55.267	9.799
55.284	9.834
55.300	9.809
55.317	9.837
55.333	9.828
55.350	9.826
55.367	9.819
55.383	9.826
55.400	9.825
55.416	9.838
55.433	9.794
55.450	9.776
55.466	9.835
55.483	9.823
55.500	9.791
55.516	9.789
55.533	9.783
55.549	9.786
55.566	9.792
55.583	9.804
55.599	9.821
55.616	9.809
55.633	9.796
55.649	9.782
55.666	9.794
55.682	9.809
55.699	9.832
55.716	9.817
55.732	9.802
55.749	9.837
55.766	9.836
55.782	9.825
55.799	9.851
55.815	9.844
55.832	9.836
55.849	9.803
55.865	9.813
55.882	9.827
55.899	9.863
55.915	9.818
55.932	9.826
55.948	9.813
55.965	9.799
55.982	9.825
55.998	9.843
56.015	9.800
56.031	9.801
56.048	9.820
56.065	9.814
56.081	9.832
56.098	9.833
56.115	9.839
56.131	9.834
56.148	9.854
56.164	9.828
56.181	9.819
56.198	9.844
56.214	9.819
56.231	9.827
56.248	9.839
56.264	9.825
56.281	9.830
56.297	9.785
56.314	9.796
56.331	9.813
56.347	9.781
56.364	9.804
56.381	9.823
56.397	9.823
56.414	9.821
56.430	9.792
56.447	9.777
56.464	9.779
56.480	9.779
56.497	9.787
56.514	9.769
56.530	9.786
56.547	9.785
56.563	9.809
56.580	9.807
56.597	9.813
56.613	9.816
56.630	9.844
56.646	9.832
56.663	9.833
56.680	9.807
56.696	9.819
56.713	9.790
56.730	9.821
56.746	9.799
56.763	9.781
56.779	9.777
56.796	9.800
56.813	9.825
56.829	9.814
56.846	9.791
56.863	9.782
56.879	9.770
56.896	9.783
56.912	9.779
56.929	9.794
56.946	9.772
56.962	9.773
56.979	9.770
56.996	9.765
57.012	9.780
57.029	9.779
57.045	9.781
57.062	9.791
57.079	9.782
57.095	9.763
57.112	9.795
57.129	9.778
57.145	9.764
57.162	9.775
57.178	9.788
57.195	9.774
57.212	9.745
57.228	9.751
57.245	9.761
57.261	9.773
57.278	9.783
57.295	9.766
57.311	9.773
57.328	9.777
57.345	9.748
57.361	9.780
57.378	9.775
57.394	9.774
57.411	9.775
57.428	9.764
57.444	9.745
57.461	9.757
57.478	9.746
57.494	9.742
57.511	9.731
57.527	9.734
57.544	9.717
57.561	9.732
57.577	9.735
57.594	9.735
57.611	9.758
57.627	9.770
57.644	9.731
57.660	9.735
57.677	9.733
57.694	9.755
57.710	9.709
57.727	9.765
57.744	9.776
57.760	9.772
57.777	9.788
57.793	9.753
57.810	9.740
57.827	9.743
57.843	9.740
57.860	9.748
57.876	9.748
57.893	9.757
57.910	9.747
57.926	9.731
57.943	9.742
57.960	9.723
57.976	9.727
57.993	9.768
58.009	9.757
58.026	9.744
58.043	9.763
58.059	9.776
58.076	9.735
58.093	9.763
58.109	9.750
58.126	9.736
58.142	9.731
58.159	9.747
58.176	9.738
58.192	9.732
58.209	9.762
58.226	9.759
58.242	9.769
58.259	9.780
58.275	9.763
58.292	9.773
58.309	9.761
58.325	9.716
58.342	9.758
58.359	9.763
58.375	9.723
58.392	9.742
58.408	9.755
58.425	9.762
58.442	9.746
58.458	9.780
58.475	9.769
58.491	9.755
58.508	9.792
58.525	9.782
58.541	9.758
58.558	9.737
58.575	9.753
58.591	9.751
58.608	9.764
58.624	9.743
58.641	9.759
58.658	9.742
58.674	9.736
58.691	9.742
58.708	9.726
58.724	9.726
58.741	9.694
58.757	9.730
58.774	9.718
58.791	9.743
58.807	9.743
58.824	9.762
58.841	9.760
58.857	9.744
58.874	9.759
58.890	9.751
58.907	9.752
58.924	9.743
58.940	9.716
58.957	9.740
58.974	9.709
58.990	9.724
59.007	9.752
59.023	9.776
59.040	9.737
59.057	9.740
59.073	9.725
59.090	9.750
59.106	9.791
59.123	9.767
59.140	9.763
59.156	9.740
59.173	9.755
59.190	9.771
59.206	9.714
59.223	9.739
59.239	9.703
59.256	9.717
59.273	9.764
59.289	9.701
59.306	9.702
59.323	9.707
59.339	9.716
59.356	9.713
59.372	9.706
59.389	9.759
59.406	9.727
59.422	9.753
59.439	9.747
59.456	9.772
59.472	9.756
59.489	9.776
59.505	9.716
59.522	9.705
59.539	9.740
59.555	9.708
59.572	9.714
59.589	9.714
59.605	9.706
59.622	9.723
59.638	9.729
59.655	9.705
59.672	9.726
59.688	9.709
59.705	9.708
59.721	9.722
59.738	9.730
59.755	9.712
59.771	9.708
59.788	9.732
59.805	9.732
59.821	9.714
59.838	9.713
59.854	9.710
59.871	9.728
59.888	9.729
59.904	9.709
59.921	9.758
59.938	9.742
59.954	9.737
59.971	9.738
59.987	9.755
60.004	9.741
60.021	9.722
60.037	9.710
60.054	9.765
60.071	9.710
60.087	9.723
60.104	9.732
60.120	9.713
60.137	9.693
60.154	9.718
60.170	9.733
60.187	9.724
60.204	9.734
60.220	9.720
60.237	9.719
60.253	9.724
60.270	9.734
60.287	9.720
60.303	9.715
60.320	9.714
60.336	9.715
60.353	9.750
60.370	9.739
60.386	9.722
60.403	9.712
60.420	9.736
60.436	9.739
60.453	9.727
60.469	9.672
60.486	9.688
60.503	9.658
60.519	9.667
60.536	9.693
60.553	9.696
60.569	9.696
60.586	9.676
60.602	9.693
60.619	9.700
60.636	9.694
60.652	9.704
60.669	9.707
60.686	9.718
60.702	9.742
60.719	9.741
60.735	9.755
60.752	9.721
60.769	9.732
60.785	9.747
60.802	9.717
60.819	9.724
60.835	9.730
60.852	9.732
60.868	9.733
60.885	9.746
60.902	9.743
60.918	9.715
60.935	9.723
60.951	9.698
60.968	9.717
60.985	9.702
61.001	9.736
61.018	9.694
61.035	9.716
61.051	9.673
61.068	9.680
61.084	9.677
61.101	9.691
61.118	9.700
61.134	9.685
61.151	9.711
61.168	9.695
61.184	9.697
61.201	9.694
61.217	9.685
61.234	9.706
61.251	9.715
61.267	9.722
61.284	9.737
61.301	9.722
61.317	9.737
61.334	9.733
61.350	9.753
61.367	9.718
61.384	9.729
61.400	9.707
61.417	9.686
61.434	9.707
61.450	9.723
61.467	9.719
61.483	9.725
61.500	9.723
61.517	9.710
61.533	9.716
61.550	9.710
61.566	9.706
61.583	9.720
61.600	9.711
61.616	9.709
61.633	9.702
61.650	9.712
61.666	9.704
61.683	9.707
61.699	9.720
61.716	9.690
61.733	9.711
61.749	9.709
61.766	9.671
61.783	9.686
61.799	9.723
61.816	9.698
61.832	9.668
61.849	9.687
61.866	9.710
61.882	9.679
61.899	9.689
61.916	9.718
61.932	9.691
61.949	9.706
61.965	9.718
61.982	9.679
61.999	9.683
62.015	9.700
62.032	9.724
62.049	9.718
62.065	9.725
62.082	9.691
62.098	9.679
62.115	9.681
62.132	9.712
62.148	9.693
62.165	9.691
62.181	9.696
62.198	9.665
62.215	9.693
62.231	9.717
62.248	9.711
62.265	9.696
62.281	9.721
62.298	9.707
62.314	9.695
62.331	9.689
62.348	9.713
62.364	9.678
62.381	9.703
62.398	9.705
62.414	9.681
62.431	9.693
62.447	9.678
62.464	9.691
62.481	9.668
62.497	9.663
62.514	9.700
62.531	9.725
62.547	9.701
62.564	9.688
62.580	9.714
62.597	9.717
62.614	9.698
62.630	9.697
62.647	9.693
62.664	9.692
62.680	9.674
62.697	9.658
62.713	9.661
62.730	9.711
62.747	9.656
62.763	9.669
62.780	9.691
62.796	9.700
62.813	9.685
62.830	9.720
62.846	9.718
62.863	9.676
62.880	9.686
62.896	9.679
62.913	9.661
62.929	9.676
62.946	9.665
62.963	9.649
62.979	9.671
62.996	9.654
63.013	9.640
63.029	9.662
63.046	9.665
63.062	9.685
63.079	9.674
63.096	9.677
63.112	9.663
63.129	9.677
63.146	9.653
63.162	9.669
63.179	9.699
63.195	9.694
63.212	9.678
63.229	9.719
63.245	9.691
63.262	9.674
63.279	9.659
63.295	9.688
63.312	9.670
63.328	9.702
63.345	9.665
63.362	9.660
63.378	9.676
63.395	9.678
63.411	9.643
63.428	9.673
63.445	9.658
63.461	9.674
63.478	9.668
63.495	9.656
63.511	9.655
63.528	9.683
63.544	9.682
63.561	9.647
63.578	9.666
63.594	9.681
63.611	9.680
63.628	9.701
63.644	9.668
63.661	9.662
63.677	9.658
63.694	9.680
63.711	9.665
63.727	9.654
63.744	9.703
63.761	9.691
63.777	9.683
63.794	9.668
63.810	9.670
63.827	9.664
63.844	9.673
63.860	9.647
63.877	9.659
63.894	9.676
63.910	9.641
63.927	9.652
63.943	9.652
63.960	9.673
63.977	9.675
63.993	9.657
64.010	9.699
64.026	9.705
64.043	9.684
64.060	9.679
64.076	9.699
64.093	9.674
64.110	9.711
64.126	9.698
64.143	9.666
64.159	9.678
64.176	9.692
64.193	9.693
64.209	9.672
64.226	9.690
64.243	9.685
64.259	9.677
64.276	9.692
64.292	9.667
64.309	9.683
64.326	9.644
64.342	9.625
64.359	9.670
64.376	9.685
64.392	9.664
64.409	9.667
64.425	9.642
64.442	9.668
64.459	9.645
64.475	9.675
64.492	9.663
64.509	9.659
64.525	9.657
64.542	9.659
64.558	9.661
64.575	9.660
64.592	9.667
64.608	9.653
64.625	9.639
64.641	9.667
64.658	9.680
64.675	9.662
64.691	9.692
64.708	9.678
64.725	9.683
64.741	9.694
64.758	9.685
64.774	9.651
64.791	9.665
64.808	9.691
64.824	9.644
64.841	9.630
64.858	9.648
64.874	9.655
64.891	9.651
64.907	9.646
64.924	9.669
64.941	9.644
64.957	9.643
64.974	9.650
64.991	9.631
65.007	9.663
65.024	9.667
65.040	9.655
65.057	9.646
65.074	9.659
65.090	9.653
65.107	9.652
65.124	9.670
65.140	9.674
65.157	9.695
65.173	9.682
65.190	9.686
65.207	9.677
65.223	9.696
65.240	9.706
65.256	9.660
65.273	9.654
65.290	9.700
65.306	9.659
65.323	9.679
65.340	9.676
65.356	9.674
65.373	9.667
65.389	9.647
65.406	9.672
65.423	9.663
65.439	9.689
65.456	9.657
65.473	9.663
65.489	9.650
65.506	9.677
65.522	9.684
65.539	9.673
65.556	9.644
65.572	9.681
65.589	9.659
65.606	9.655
65.622	9.666
65.639	9.660
65.655	9.653
65.672	9.653
65.689	9.656
65.705	9.656
65.722	9.647
65.739	9.645
65.755	9.645
65.772	9.646
65.788	9.625
65.805	9.645
65.822	9.649
65.838	9.647
65.855	9.645
65.871	9.667
65.888	9.649
65.905	9.644
65.921	9.639
65.938	9.642
65.955	9.662
65.971	9.642
65.988	9.636
66.004	9.628
66.021	9.633
66.038	9.626
66.054	9.626
66.071	9.651
66.088	9.642
66.104	9.617
66.121	9.646
66.137	9.628
66.154	9.611
66.171	9.611
66.187	9.633
66.204	9.618
66.221	9.645
66.237	9.630
66.254	9.643
66.270	9.655
66.287	9.636
66.304	9.648
66.320	9.658
66.337	9.646
66.354	9.647
66.370	9.639
66.387	9.659
66.403	9.677
66.420	9.644
66.437	9.630
66.453	9.627
66.470	9.645
66.486	9.629
66.503	9.616
66.520	9.639
66.536	9.647
66.553	9.632
66.570	9.615
66.586	9.639
66.603	9.641
66.619	9.641
66.636	9.636
66.653	9.648
66.669	9.628
66.686	9.609
66.703	9.610
66.719	9.612
66.736	9.620
66.752	9.615
66.769	9.615
66.786	9.605
66.802	9.625
66.819	9.609
66.836	9.617
66.852	9.593
66.869	9.628
66.885	9.614
66.902	9.609
66.919	9.624
66.935	9.630
66.952	9.637
66.968	9.661
66.985	9.637
67.002	9.663
67.018	9.662
67.035	9.632
67.052	9.669
67.068	9.649
67.085	9.637
67.101	9.640
67.118	9.632
67.135	9.622
67.151	9.649
67.168	9.627
67.185	9.635
67.201	9.643
67.218	9.663
67.234	9.655
67.251	9.658
67.268	9.660
67.284	9.653
67.301	9.630
67.318	9.631
67.334	9.640
67.351	9.634
67.367	9.635
67.384	9.624
67.401	9.614
67.417	9.655
67.434	9.619
67.451	9.609
67.467	9.630
67.484	9.630
67.500	9.624
67.517	9.612
67.534	9.622
67.550	9.620
67.567	9.627
67.583	9.638
67.600	9.648
67.617	9.630
67.633	9.606
67.650	9.653
67.667	9.634
67.683	9.647
67.700	9.622
67.716	9.654
67.733	9.624
67.750	9.648
67.766	9.659
67.783	9.625
67.800	9.652
67.816	9.648
67.833	9.664
67.849	9.643
67.866	9.639
67.883	9.657
67.899	9.673
67.916	9.682
67.933	9.677
67.949	9.683
67.966	9.653
67.982	9.676
67.999	9.668
68.016	9.687
68.032	9.660
68.049	9.614
68.066	9.653
68.082	9.656
68.099	9.657
68.115	9.655
68.132	9.641
68.149	9.645
68.165	9.651
68.182	9.643
68.198	9.660
68.215	9.660
68.232	9.636
68.248	9.632
68.265	9.643
68.282	9.649
68.298	9.649
68.315	9.650
68.331	9.638
68.348	9.615
68.365	9.674
68.381	9.650
68.398	9.646
68.415	9.661
68.431	9.652
68.448	9.678
68.464	9.659
68.481	9.631
68.498	9.638
68.514	9.637
68.531	9.633
68.548	9.599
68.564	9.626
68.581	9.655
68.597	9.648
68.614	9.636
68.631	9.612
68.647	9.634
68.664	9.652
68.681	9.643
68.697	9.628
68.714	9.653
68.730	9.640
68.747	9.606
68.764	9.632
68.780	9.626
68.797	9.647
68.813	9.647
68.830	9.649
68.847	9.643
68.863	9.625
68.880	9.640
68.897	9.633
68.913	9.579
68.930	9.573
68.946	9.591
68.963	9.596
68.980	9.588
68.996	9.567
69.013	9.613
69.030	9.624
69.046	9.616
69.063	9.617
69.079	9.629
69.096	9.603
69.113	9.603
69.129	9.626
69.146	9.622
69.163	9.612
69.179	9.633
69.196	9.650
69.212	9.647
69.229	9.657
69.246	9.649
69.262	9.635
69.279	9.647
69.296	9.652
69.312	9.634
69.329	9.623
69.345	9.664
69.362	9.660
69.379	9.670
69.395	9.660
69.412	9.652
69.428	9.657
69.445	9.640
69.462	9.644
69.478	9.616
69.495	9.624
69.512	9.609
69.528	9.619
69.545	9.628
69.561	9.603
69.578	9.590
69.595	9.582
69.611	9.595
69.628	9.577
69.645	9.614
69.661	9.600
69.678	9.604
69.694	9.568
69.711	9.572
69.728	9.598
69.744	9.589
69.761	9.603
69.778	9.602
69.794	9.558
69.811	9.605
69.827	9.596
69.844	9.607
69.861	9.614
69.877	9.646
69.894	9.611
69.911	9.609
69.927	9.622
69.944	9.629
69.960	9.632
69.977	9.645
69.994	9.641
70.010	9.649
70.027	9.647
70.043	9.660
70.060	9.626
70.077	9.629
70.093	9.654
70.110	9.629
70.127	9.626
70.143	9.613
70.160	9.602
70.176	9.626
70.193	9.605
70.210	9.593
70.226	9.599
70.243	9.595
70.260	9.608
70.276	9.617
70.293	9.628
70.309	9.620
70.326	9.622
70.343	9.609
70.359	9.597
70.376	9.606
70.393	9.602
70.409	9.613
70.426	9.621
70.442	9.630
70.459	9.607
70.476	9.633
70.492	9.624
70.509	9.606
70.526	9.604
70.542	9.608
70.559	9.602
70.575	9.597
70.592	9.638
70.609	9.617
70.625	9.600
70.642	9.604
70.658	9.592
70.675	9.582
70.692	9.586
70.708	9.566
70.725	9.602
70.742	9.606
70.758	9.606
70.775	9.574
70.791	9.594
70.808	9.609
70.825	9.593
70.841	9.602
70.858	9.606
70.875	9.614
70.891	9.617
70.908	9.574
70.924	9.598
70.941	9.620
70.958	9.609
70.974	9.570
70.991	9.593
71.008	9.549
71.024	9.561
71.041	9.537
71.057	9.574
71.074	9.540
71.091	9.569
71.107	9.572
71.124	9.586
71.141	9.594
71.157	9.582
71.174	9.574
71.190	9.604
71.207	9.587
71.224	9.570
71.240	9.580
71.257	9.583
71.273	9.590
71.290	9.571
71.307	9.598
71.323	9.596
71.340	9.590
71.357	9.576
71.373	9.616
71.390	9.584
71.406	9.583
71.423	9.579
71.440	9.581
71.456	9.584
71.473	9.589
71.490	9.567
71.506	9.530
71.523	9.590
71.539	9.558
71.556	9.590
71.573	9.581
71.589	9.580
71.606	9.576
71.623	9.583
71.639	9.560
71.656	9.565
71.672	9.564
71.689	9.556
71.706	9.554
71.722	9.533
71.739	9.549
71.756	9.568
71.772	9.530
71.789	9.554
71.805	9.570
71.822	9.564
71.839	9.565
71.855	9.553
71.872	9.579
71.888	9.585
71.905	9.557
71.922	9.588
71.938	9.583
71.955	9.561
71.972	9.573
71.988	9.534
72.005	9.555
72.021	9.557
72.038	9.543
72.055	9.544
72.071	9.564
72.088	9.563
72.105	9.557
72.121	9.573
72.138	9.564
72.154	9.566
72.171	9.561
72.188	9.556
72.204	9.551
72.221	9.550
72.238	9.569
72.254	9.558
72.271	9.574
72.287	9.528
72.304	9.528
72.321	9.525
72.337	9.552
72.354	9.559
72.371	9.590
72.387	9.575
72.404	9.574
72.420	9.585
72.437	9.546
72.454	9.549
72.470	9.552
72.487	9.563
72.503	9.543
72.520	9.563
72.537	9.570
72.553	9.546
72.570	9.539
72.587	9.537
72.603	9.550
72.620	9.529
72.636	9.527
72.653	9.511
72.670	9.526
72.686	9.554
72.703	9.517
72.720	9.524
72.736	9.520
72.753	9.551
72.769	9.552
72.786	9.548
72.803	9.541
72.819	9.549
72.836	9.544
72.853	9.536
72.869	9.531
72.886	9.540
72.902	9.554
72.919	9.563
72.936	9.567
72.952	9.556
72.969	9.526
72.986	9.523
73.002	9.513
73.019	9.548
73.035	9.517
73.052	9.522
73.069	9.532
73.085	9.497
73.102	9.527
73.118	9.523
73.135	9.536
73.152	9.523
73.168	9.535
73.185	9.530
73.202	9.516
73.218	9.543
73.235	9.538
73.251	9.524
73.268	9.548
73.285	9.540
73.301	9.548
73.318	9.562
73.335	9.564
73.351	9.542
73.368	9.525
73.384	9.552
73.401	9.572
73.418	9.536
73.434	9.555
73.451	9.571
73.468	9.549
73.484	9.519
73.501	9.537
73.517	9.549
73.534	9.545
73.551	9.581
73.567	9.557
73.584	9.566
73.601	9.581
73.617	9.562
73.634	9.569
73.650	9.539
73.667	9.558
73.684	9.504
73.700	9.501
73.717	9.505
73.733	9.536
73.750	9.534
73.767	9.523
73.783	9.522
73.800	9.510
73.817	9.528
73.833	9.537
73.850	9.535
73.866	9.526
73.883	9.513
73.900	9.522
73.916	9.566
73.933	9.568
73.950	9.545
73.966	9.554
73.983	9.532
73.999	9.536
74.016	9.510
74.033	9.500
74.049	9.531
74.066	9.508
74.083	9.504
74.099	9.554
74.116	9.530
74.132	9.522
74.149	9.546
74.166	9.548
74.182	9.546
74.199	9.495
74.216	9.510
74.232	9.528
74.249	9.537
74.265	9.524
74.282	9.510
74.299	9.549
74.315	9.561
74.332	9.532
74.348	9.536
74.365	9.527
74.382	9.555
74.398	9.535
74.415	9.563
74.432	9.544
74.448	9.549
74.465	9.532
74.481	9.520
74.498	9.523
74.515	9.525
74.531	9.548
74.548	9.536
74.565	9.520
74.581	9.549
74.598	9.529
74.614	9.538
74.631	9.525
74.648	9.539
74.664	9.514
74.681	9.501
74.698	9.548
74.714	9.574
74.731	9.555
74.747	9.536
74.764	9.553
74.781	9.533
74.797	9.528
74.814	9.512
74.831	9.511
74.847	9.512
74.864	9.535
74.880	9.521
74.897	9.521
74.914	9.550
74.930	9.515
74.947	9.494
74.963	9.518
74.980	9.509
74.997	9.544
75.013	9.526
75.030	9.503
75.047	9.515
75.063	9.525
75.080	9.500
75.096	9.543
75.113	9.519
75.130	9.524
75.146	9.508
75.163	9.513
75.180	9.516
75.196	9.528
75.213	9.510
75.229	9.523
75.246	9.509
75.263	9.538
75.279	9.515
75.296	9.522
75.313	9.507
75.329	9.525
75.346	9.538
75.362	9.554
75.379	9.519
75.396	9.518
75.412	9.510
75.429	9.536
75.446	9.522
75.462	9.545
75.479	9.563
75.495	9.520
75.512	9.518
75.529	9.533
75.545	9.549
75.562	9.582
75.578	9.518
75.595	9.515
75.612	9.525
75.628	9.524
75.645	9.515
75.662	9.524
75.678	9.534
75.695	9.536
75.711	9.538
75.728	9.517
75.745	9.545
75.761	9.548
75.778	9.543
75.795	9.552
75.811	9.524
75.828	9.529
75.844	9.510
75.861	9.505
75.878	9.529
75.894	9.510
75.911	9.553
75.928	9.543
75.944	9.537
75.961	9.550
75.977	9.548
75.994	9.540
76.011	9.527
76.027	9.547
76.044	9.532
76.061	9.513
76.077	9.525
76.094	9.499
76.110	9.507
76.127	9.513
76.144	9.519
76.160	9.509
76.177	9.525
76.193	9.502
76.210	9.506
76.227	9.520
76.243	9.491
76.260	9.509
76.277	9.485
76.293	9.524
76.310	9.526
76.326	9.510
76.343	9.526
76.360	9.510
76.376	9.516
76.393	9.495
76.410	9.504
76.426	9.507
76.443	9.504
76.459	9.531
76.476	9.526
76.493	9.495
76.509	9.520
76.526	9.502
76.543	9.528
76.559	9.518
76.576	9.506
76.592	9.543
76.609	9.520
76.626	9.526
76.642	9.496
76.659	9.523
76.676	9.537
76.692	9.554
76.709	9.541
76.725	9.519
76.742	9.513
76.759	9.505
76.775	9.540
76.792	9.525
76.808	9.528
76.825	9.528
76.842	9.513
76.858	9.516
76.875	9.515
76.892	9.498
76.908	9.542
76.925	9.523
76.941	9.528
76.958	9.483
76.975	9.477
76.991	9.504
77.008	9.490
77.025	9.486
77.041	9.515
77.058	9.496
77.074	9.473
77.091	9.502
77.108	9.508
77.124	9.509
77.141	9.476
77.158	9.454
77.174	9.482
77.191	9.511
77.207	9.499
77.224	9.507
77.241	9.495
77.257	9.469
77.274	9.506
77.291	9.493
77.307	9.482
77.324	9.503
77.340	9.506
77.357	9.513
77.374	9.496
77.390	9.495
77.407	9.517
77.423	9.500
77.440	9.511
77.457	9.513
77.473	9.496
77.490	9.497
77.507	9.494
77.523	9.512
77.540	9.511
77.556	9.518
77.573	9.523
77.590	9.494
77.606	9.531
77.623	9.510
77.640	9.502
77.656	9.516
77.673	9.491
77.689	9.485
77.706	9.497
77.723	9.500
77.739	9.514
77.756	9.523
77.773	9.487
77.789	9.515
77.806	9.545
77.822	9.505
77.839	9.509
77.856	9.524
77.872	9.488
77.889	9.514
77.906	9.493
77.922	9.490
77.939	9.501
77.955	9.528
77.972	9.517
77.989	9.519
78.005	9.508
78.022	9.527
78.038	9.492
78.055	9.531
78.072	9.485
78.088	9.505
78.105	9.505
78.122	9.473
78.138	9.491
78.155	9.512
78.171	9.491
78.188	9.479
78.205	9.485
78.221	9.525
78.238	9.510
78.255	9.497
78.271	9.529
78.288	9.503
78.304	9.539
78.321	9.472
78.338	9.472
78.354	9.497
78.371	9.499
78.388	9.495
78.404	9.486
78.421	9.496
78.437	9.503
78.454	9.514
78.471	9.532
78.487	9.500
78.504	9.514
78.521	9.519
78.537	9.471
78.554	9.473
78.570	9.475
78.587	9.503
78.604	9.471
78.620	9.473
78.637	9.455
78.653	9.462
78.670	9.473
78.687	9.490
78.703	9.477
78.720	9.492
78.737	9.501
78.753	9.480
78.770	9.506
78.786	9.500
78.803	9.505
78.820	9.474
78.836	9.468
78.853	9.474
78.870	9.496
78.886	9.493
78.903	9.498
78.919	9.478
78.936	9.495
78.953	9.490
78.969	9.512
78.986	9.507
79.003	9.494
79.019	9.489
79.036	9.497
79.052	9.498
79.069	9.502
79.086	9.482
79.102	9.479
79.119	9.505
79.136	9.476
79.152	9.470
79.169	9.477
79.185	9.482
79.202	9.459
79.219	9.466
79.235	9.487
79.252	9.472
79.268	9.483
79.285	9.460
79.302	9.493
79.318	9.487
79.335	9.471
79.352	9.475
79.368	9.502
79.385	9.486
79.401	9.479
79.418	9.456
79.435	9.468
79.451	9.451
79.468	9.458
79.485	9.441
79.501	9.466
79.518	9.446
79.534	9.430
79.551	9.475
79.568	9.467
79.584	9.449
79.601	9.469
79.618	9.479
79.634	9.479
79.651	9.463
79.667	9.486
79.684	9.495
79.701	9.501
79.717	9.468
79.734	9.475
79.751	9.503
79.767	9.518
79.784	9.492
79.800	9.478
79.817	9.479
79.834	9.484
79.850	9.478
79.867	9.485
79.883	9.477
79.900	9.499
79.917	9.493
79.933	9.501
79.950	9.485
79.967	9.485
79.983	9.469
80.000	9.454
80.016	9.459
80.033	9.450
80.050	9.461
80.066	9.479
80.083	9.476
80.100	9.498
80.116	9.509
80.133	9.483
80.149	9.481
80.166	9.485
80.183	9.479
80.199	9.485
80.216	9.488
80.233	9.486
80.249	9.512
80.266	9.469
80.282	9.454
80.299	9.472
80.316	9.455
80.332	9.456
80.349	9.484
80.365	9.481
80.382	9.485
80.399	9.500
80.415	9.466
80.432	9.499
80.449	9.484
80.465	9.439
80.482	9.467
80.498	9.481
80.515	9.497
80.532	9.507
80.548	9.483
80.565	9.488
80.582	9.494
80.598	9.456
80.615	9.474
80.631	9.481
80.648	9.454
80.665	9.463
80.681	9.471
80.698	9.476
80.715	9.459
80.731	9.485
80.748	9.456
80.764	9.456
80.781	9.477
80.798	9.446
80.814	9.506
80.831	9.462
80.848	9.442
80.864	9.434
80.881	9.445
80.897	9.485
80.914	9.471
80.931	9.497
80.947	9.449
80.964	9.466
80.980	9.473
80.997	9.482
81.014	9.483
81.030	9.488
81.047	9.469
81.064	9.492
81.080	9.477
81.097	9.481
81.113	9.470
81.130	9.494
81.147	9.512
81.163	9.491
81.180	9.491
81.197	9.506
81.213	9.501
81.230	9.473
81.246	9.486
81.263	9.460
81.280	9.448
81.296	9.460
81.313	9.440
81.330	9.452
81.346	9.452
81.363	9.457
81.379	9.463
81.396	9.464
81.413	9.458
81.429	9.457
81.446	9.452
81.463	9.446
81.479	9.473
81.496	9.499
81.512	9.481
81.529	9.473
81.546	9.477
81.562	9.458
81.579	9.473
81.595	9.471
81.612	9.470
81.629	9.455
81.645	9.486
81.662	9.483
81.679	9.485
81.695	9.482
81.712	9.470
81.728	9.468
81.745	9.454
81.762	9.458
81.778	9.466
81.795	9.459
81.812	9.427
81.828	9.471
81.845	9.465
81.861	9.454
81.878	9.431
81.895	9.484
81.911	9.449
81.928	9.440
81.945	9.453
81.961	9.469
81.978	9.466
81.994	9.476
82.011	9.435
82.028	9.456
82.044	9.436
82.061	9.444
82.078	9.449
82.094	9.459
82.111	9.462
82.127	9.466
82.144	9.453
82.161	9.440
82.177	9.432
82.194	9.454
82.210	9.447
82.227	9.450
82.244	9.465
82.260	9.474
82.277	9.487
82.294	9.463
82.310	9.474
82.327	9.473
82.343	9.482
82.360	9.448
82.377	9.453
82.393	9.463
82.410	9.453
82.427	9.435
82.443	9.434
82.460	9.462
82.476	9.436
82.493	9.451
82.510	9.460
82.526	9.469
82.543	9.436
82.560	9.431
82.576	9.427
82.593	9.464
82.609	9.435
82.626	9.452
82.643	9.442
82.659	9.440
82.676	9.436
82.693	9.451
82.709	9.444
82.726	9.463
82.742	9.464
82.759	9.477
82.776	9.479
82.792	9.484
82.809	9.484
82.825	9.483
82.842	9.446
82.859	9.442
82.875	9.432
82.892	9.411
82.909	9.428
82.925	9.414
82.942	9.416
82.958	9.446
82.975	9.459
82.992	9.441
83.008	9.452
83.025	9.442
83.042	9.434
83.058	9.432
83.075	9.448
83.091	9.428
83.108	9.454
83.125	9.431
83.141	9.455
83.158	9.463
83.175	9.446
83.191	9.452
83.208	9.458
83.224	9.432
83.241	9.419
83.258	9.424
83.274	9.447
83.291	9.434
83.308	9.440
83.324	9.422
83.341	9.446
83.357	9.424
83.374	9.428
83.391	9.455
83.407	9.482
83.424	9.502
83.440	9.444
83.457	9.475
83.474	9.444
83.490	9.473
83.507	9.467
83.524	9.475
83.540	9.447
83.557	9.437
83.573	9.444
83.590	9.460
83.607	9.451
83.623	9.415
83.640	9.416
83.657	9.448
83.673	9.456
83.690	9.456
83.706	9.430
83.723	9.427
83.740	9.417
83.756	9.452
83.773	9.473
83.790	9.454
83.806	9.464
83.823	9.454
83.839	9.453
83.856	9.444
83.873	9.422
83.889	9.424
83.906	9.443
83.923	9.470
83.939	9.461
83.956	9.445
83.972	9.452
83.989	9.438
84.006	9.456
84.022	9.460
84.039	9.464
84.055	9.467
84.072	9.455
84.089	9.440
84.105	9.431
84.122	9.443
84.139	9.465
84.155	9.464
84.172	9.448
84.188	9.471
84.205	9.421
84.222	9.487
84.238	9.460
84.255	9.449
84.272	9.469
84.288	9.470
84.305	9.454
84.321	9.464
84.338	9.459
84.355	9.457
84.371	9.439
84.388	9.447
84.405	9.463
84.421	9.468
84.438	9.437
84.454	9.423
84.471	9.415
84.488	9.425
84.504	9.435
84.521	9.440
84.538	9.440
84.554	9.457
84.571	9.456
84.587	9.465
84.604	9.470
84.621	9.487
84.637	9.452
84.654	9.467
84.670	9.454
84.687	9.458
84.704	9.464
84.720	9.447
84.737	9.435
84.754	9.451
84.770	9.426
84.787	9.436
84.803	9.434
84.820	9.426
84.837	9.450
84.853	9.437
84.870	9.451
84.887	9.470
84.903	9.450
84.920	9.436
84.936	9.451
84.953	9.448
84.970	9.439
84.986	9.407
85.003	9.416
85.020	9.419
85.036	9.414
85.053	9.420
85.069	9.414
85.086	9.429
85.103	9.421
85.119	9.420
85.136	9.417
85.153	9.439
85.169	9.433
85.186	9.449
85.202	9.403
85.219	9.432
85.236	9.439
85.252	9.430
85.269	9.421
85.285	9.414
85.302	9.424
85.319	9.427
85.335	9.445
85.352	9.448
85.369	9.423
85.385	9.446
85.402	9.416
85.418	9.413
85.435	9.421
85.452	9.431
85.468	9.419
85.485	9.428
85.502	9.403
85.518	9.422
85.535	9.433
85.551	9.405
85.568	9.426
85.585	9.437
85.601	9.446
85.618	9.438
85.635	9.431
85.651	9.428
85.668	9.417
85.684	9.416
85.701	9.422
85.718	9.422
85.734	9.419
85.751	9.412
85.768	9.408
85.784	9.441
85.801	9.412
85.817	9.443
85.834	9.398
85.851	9.446
85.867	9.424
85.884	9.410
85.900	9.418
85.917	9.426
85.934	9.452
85.950	9.413
85.967	9.436
85.984	9.443
86.000	9.432
86.017	9.456
86.033	9.436
86.050	9.454
86.067	9.448
86.083	9.446
86.100	9.411
86.117	9.388
86.133	9.385
86.150	9.424
86.166	9.404
86.183	9.430
86.200	9.435
86.216	9.437
86.233	9.396
86.250	9.403
86.266	9.424
86.283	9.412
86.299	9.414
86.316	9.384
86.333	9.397
86.349	9.405
86.366	9.418
86.383	9.406
86.399	9.415
86.416	9.404
86.432	9.415
86.449	9.398
86.466	9.395
86.482	9.407
86.499	9.412
86.515	9.386
86.532	9.418
86.549	9.415
86.565	9.423
86.582	9.405
86.599	9.420
86.615	9.418
86.632	9.400
86.648	9.397
86.665	9.416
86.682	9.407
86.698	9.396
86.715	9.375
86.732	9.377
86.748	9.384
86.765	9.410
86.781	9.404
86.798	9.403
86.815	9.394
86.831	9.398
86.848	9.394
86.865	9.412
86.881	9.398
86.898	9.432
86.914	9.406
86.931	9.406
86.948	9.389
86.964	9.401
86.981	9.415
86.998	9.412
87.014	9.421
87.031	9.397
87.047	9.449
87.064	9.435
87.081	9.440
87.097	9.429
87.114	9.423
87.130	9.423
87.147	9.425
87.164	9.430
87.180	9.418
87.197	9.418
87.214	9.406
87.230	9.435
87.247	9.429
87.263	9.405
87.280	9.417
87.297	9.419
87.313	9.428
87.330	9.432
87.347	9.420
87.363	9.431
87.380	9.436
87.396	9.422
87.413	9.424
87.430	9.427
87.446	9.423
87.463	9.427
87.480	9.406
87.496	9.421
87.513	9.438
87.529	9.428
87.546	9.431
87.563	9.428
87.579	9.424
87.596	9.436
87.613	9.412
87.629	9.421
87.646	9.424
87.662	9.430
87.679	9.427
87.696	9.392
87.712	9.383
87.729	9.393
87.745	9.402
87.762	9.403
87.779	9.420
87.795	9.406
87.812	9.392
87.829	9.409
87.845	9.396
87.862	9.418
87.878	9.423
87.895	9.410
87.912	9.422
87.928	9.444
87.945	9.414
87.962	9.420
87.978	9.368
87.995	9.400
88.011	9.441
88.028	9.426
88.045	9.402
88.061	9.442
88.078	9.419
88.095	9.406
88.111	9.445
88.128	9.423
88.144	9.428
88.161	9.420
88.178	9.403
88.194	9.393
88.211	9.414
88.228	9.420
88.244	9.410
88.261	9.402
88.277	9.397
88.294	9.403
88.311	9.411
88.327	9.415
88.344	9.407
88.360	9.396
88.377	9.390
88.394	9.396
88.410	9.379
88.427	9.368
88.444	9.364
88.460	9.392
88.477	9.384
88.493	9.395
88.510	9.398
88.527	9.379
88.543	9.411
88.560	9.438
88.577	9.406
88.593	9.413
88.610	9.397
88.626	9.432
88.643	9.409
88.660	9.407
88.676	9.404
88.693	8.931
88.710	9.397
88.726	9.405
88.743	9.416
88.759	9.398
88.776	9.410
88.793	9.405
88.809	9.398
88.826	9.411
88.843	9.412
88.859	9.416
88.876	9.391
88.892	9.381
88.909	9.391
88.926	9.423
88.942	9.410
88.959	9.401
88.976	9.442
88.992	9.402
89.009	9.440
89.025	9.418
89.042	9.454
89.059	9.428
89.075	9.410
89.092	9.414
89.108	9.425
89.125	9.414
89.142	9.418
89.158	9.427
89.175	9.425
89.192	9.430
89.208	9.434
89.225	9.451
89.241	9.440
89.258	9.409
89.275	9.414
89.291	9.411
89.308	9.429
89.325	9.441
89.341	9.423
89.358	9.402
89.374	9.420
89.391	9.368
89.408	9.414
89.424	9.430
89.441	9.429
89.458	9.433

