NW1 Channel 9 Rise @ 5V (EXP96)	
Time (s)	Current (mA)
0.025	55.122
0.055	55.133
0.085	55.127
0.115	55.126
0.145	55.120
0.175	55.109
0.205	55.101
0.236	55.109
0.266	55.137
0.296	55.144
0.326	55.141
0.356	55.141
0.387	55.165
0.417	55.172
0.447	55.186
0.477	55.194
0.507	55.196
0.538	55.218
0.568	55.226
0.598	55.231
0.628	55.233
0.658	55.232
0.688	55.227
0.719	55.241
0.749	55.249
0.779	55.253
0.809	55.250
0.839	55.246
0.870	55.238
0.900	55.231
0.930	55.225
0.960	55.221
0.990	55.217
1.020	55.223
1.051	55.215
1.081	55.230
1.111	55.225
1.141	55.228
1.171	55.229
1.202	55.224
1.232	55.223
1.262	55.225
1.292	55.240
1.322	55.238
1.353	55.237
1.383	55.244
1.413	55.241
1.443	55.236
1.473	55.232
1.503	55.226
1.534	55.222
1.564	55.218
1.594	55.216
1.624	55.213
1.654	55.213
1.685	55.211
1.715	55.207
1.745	55.206
1.775	55.203
1.805	55.202
1.836	55.211
1.866	55.220
1.896	55.225
1.926	55.218
1.956	55.213
1.986	55.217
2.017	55.214
2.047	55.213
2.077	55.207
2.107	55.204
2.137	55.209
2.168	55.213
2.198	55.215
2.228	55.214
2.258	55.222
2.288	55.222
2.319	55.221
2.349	55.223
2.379	55.231
2.409	55.226
2.439	55.220
2.469	55.219
2.500	55.216
2.530	55.211
2.560	55.211
2.590	55.206
2.620	55.201
2.651	55.198
2.681	55.198
2.711	55.197
2.741	55.196
2.771	55.191
2.802	55.187
2.832	55.184
2.862	55.178
2.892	55.175
2.922	55.172
2.953	55.172
2.983	55.168
3.013	55.164
3.043	55.161
3.073	55.158
3.104	55.162
3.134	55.168
3.164	55.166
3.194	55.165
3.224	55.164
3.255	55.173
3.285	55.172
3.315	55.170
3.345	55.176
3.375	55.178
3.406	55.175
3.436	55.173
3.466	55.170
3.496	55.170
3.526	55.167
3.557	55.164
3.587	55.164
3.617	55.160
3.647	55.161
3.677	55.160
3.707	55.159
3.738	55.156
3.768	55.152
3.798	55.149
3.828	55.148
3.858	55.146
3.889	55.148
3.919	55.159
3.949	55.175
3.979	55.177
4.009	55.175
4.040	55.177
4.070	55.176
4.100	55.177
4.130	55.178
4.160	55.176
4.191	55.172
4.221	55.168
4.251	55.169
4.281	55.167
4.311	55.167
4.342	55.168
4.372	55.166
4.402	55.163
4.432	55.160
4.462	55.158
4.493	55.154
4.523	55.151
4.553	55.148
4.583	55.146
4.613	55.143
4.643	55.135
4.674	55.134
4.704	55.131
4.734	55.132
4.764	55.130
4.794	55.127
4.825	55.127
4.855	55.130
4.885	55.133
4.915	55.131
4.945	55.130
4.975	55.128
5.006	55.126
5.036	55.124
5.066	55.123
5.096	55.132
5.126	55.136
5.157	55.138
5.187	55.141
5.217	55.144
5.247	55.144
5.277	55.141
5.308	55.138
5.338	55.136
5.368	55.134
5.398	55.131
5.428	55.129
5.458	55.128
5.489	55.128
5.519	55.128
5.549	55.127
5.579	55.124
5.609	55.122
5.640	55.123
5.670	55.120
5.700	55.118
5.730	55.116
5.760	55.113
5.790	55.109
5.821	55.109
5.851	55.108
5.881	55.106
5.911	55.105
5.941	55.105
5.972	55.104
6.002	55.106
6.032	55.105
6.062	55.104
6.092	55.102
6.122	55.100
6.153	55.097
6.183	55.095
6.213	55.093
6.243	55.095
6.273	55.093
6.304	55.091
6.334	55.091
6.364	55.089
6.394	55.099
6.424	55.100
6.455	55.099
6.485	55.099
6.515	55.098
6.545	55.097
6.575	55.095
6.605	55.093
6.636	55.096
6.666	55.094
6.696	55.095
6.726	55.097
6.756	55.107
6.787	55.114
6.817	55.113
6.847	55.111
6.877	55.112
6.907	55.114
6.937	55.113
6.968	55.113
6.998	55.112
7.028	55.109
7.058	55.107
7.088	55.106
7.119	55.103
7.149	55.104
7.179	55.102
7.209	55.103
7.239	55.102
7.269	55.105
7.300	55.104
7.330	55.102
7.360	55.101
7.390	55.103
7.420	55.107
7.451	55.105
7.481	55.102
7.511	55.099
7.541	55.098
7.571	55.096
7.601	55.093
7.632	55.092
7.662	55.091
7.692	55.091
7.722	55.092
7.752	55.092
7.783	55.090
7.813	55.088
7.843	55.086
7.873	55.086
7.903	55.087
7.934	55.087
7.964	55.088
7.994	55.089
8.024	55.091
8.054	55.089
8.084	55.088
8.115	55.087
8.145	55.085
8.175	55.088
8.205	55.088
8.235	55.087
8.266	55.089
8.296	55.092
8.326	55.093
8.356	55.097
8.386	55.097
8.416	55.097
8.447	55.098
8.477	55.099
8.507	55.097
8.537	55.099
8.567	55.101
8.598	55.099
8.628	55.098
8.658	55.104
8.688	55.109
8.718	55.114
8.749	55.114
8.779	55.112
8.809	55.111
8.839	55.110
8.869	55.109
8.899	55.107
8.930	55.106
8.960	55.105
8.990	55.104
9.020	55.102
9.050	55.100
9.081	55.099
9.111	55.097
9.141	55.097
9.171	55.095
9.201	55.098
9.231	55.098
9.262	55.096
9.292	55.095
9.322	55.092
9.352	55.089
9.382	55.086
9.413	55.093
9.443	55.094
9.473	55.092
9.503	55.089
9.533	55.084
9.563	54.770
9.594	55.077
9.624	55.081
9.654	55.082
9.684	55.082
9.714	55.082
9.745	55.084
9.775	55.086
9.805	55.087
9.835	55.089
9.865	55.091
9.896	55.092
9.926	55.092
9.956	55.093
9.986	55.093
10.016	55.091
10.046	55.094
10.077	55.096
10.107	55.098
10.137	55.098
10.167	55.100
10.197	55.101
10.228	55.101
10.258	55.099
10.288	55.099
10.318	55.101
10.348	55.101
10.379	55.099
10.409	55.100
10.439	55.099
10.469	55.098
10.499	55.096
10.529	55.095
10.560	55.094
10.590	55.091
10.620	55.092
10.650	55.094
10.680	55.094
10.711	55.093
10.741	55.092
10.771	55.092
10.801	55.093
10.831	55.097
10.861	55.098
10.892	55.097
10.922	55.097
10.952	55.098
10.982	55.098
11.012	55.097
11.043	55.096
11.073	55.100
11.103	55.101
11.133	55.101
11.163	55.103
11.194	55.102
11.224	55.104
11.254	55.104
11.284	55.104
11.314	55.108
11.344	55.107
11.375	55.105
11.405	55.105
11.435	55.104
11.465	55.103
11.495	55.102
11.526	55.101
11.556	55.100
11.586	55.100
11.616	55.099
11.646	55.098
11.676	55.099
11.707	55.099
11.737	55.098
11.767	55.099
11.797	55.098
11.827	55.098
11.858	55.100
11.888	55.099
11.918	55.099
11.948	55.098
11.978	55.097
12.008	55.096
12.039	55.098
12.069	55.100
12.099	55.099
12.129	55.099
12.159	55.102
12.190	55.101
12.220	55.103
12.250	55.103
12.280	55.103
12.310	55.102
12.341	55.101
12.371	55.100
12.401	55.099
12.431	55.099
12.461	55.100
12.491	55.100
12.522	55.100
12.552	55.099
12.582	55.099
12.612	55.098
12.642	55.097
12.673	55.096
12.703	55.095
12.733	55.095
12.763	55.095
12.793	55.094
12.823	55.092
12.854	55.093
12.884	55.092
12.914	55.092
12.944	55.092
12.974	55.094
13.005	55.101
13.035	55.104
13.065	55.105
13.095	55.104
13.125	55.104
13.155	55.103
13.186	55.103
13.216	55.103
13.246	55.106
13.276	55.107
13.306	55.107
13.337	55.108
13.367	55.110
13.397	55.113
13.427	55.115
13.457	55.118
13.487	55.121
13.518	55.122
13.548	55.122
13.578	55.122
13.608	55.127
13.638	55.127
13.669	55.125
13.699	55.126
13.729	55.125
13.759	55.125
13.789	55.126
13.819	55.128
13.850	55.130
13.880	55.130
13.910	55.130
13.940	55.132
13.970	55.132
14.001	55.131
14.031	55.131
14.061	55.132
14.091	55.131
14.121	55.130
14.152	55.131
14.182	55.130
14.212	55.130
14.242	55.129
14.272	55.128
14.302	55.128
14.333	55.130
14.363	55.129
14.393	55.146
14.423	55.148
14.453	55.147
14.484	55.147
14.514	55.146
14.544	55.146
14.574	55.145
14.604	55.145
14.634	55.145
14.665	55.144
14.695	55.144
14.725	55.150
14.755	55.150
14.785	55.149
14.816	55.149
14.846	55.148
14.876	55.149
14.906	55.152
14.936	55.152
14.967	55.151
14.997	55.150
15.027	55.149
15.057	55.148
15.087	55.147
15.117	55.146
15.148	55.147
15.178	55.148
15.208	55.147
15.238	55.146
15.268	55.145
15.299	55.144
15.329	55.144
15.359	55.143
15.389	55.142
15.419	55.141
15.450	55.138
15.480	55.140
15.510	55.142
15.540	55.144
15.570	55.148
15.600	55.150
15.631	55.154
15.661	55.158
15.691	55.160
15.721	55.167
15.751	55.169
15.782	55.169
15.812	55.169
15.842	55.171
15.872	55.169
15.902	55.172
15.933	55.172
15.963	55.172
15.993	55.172
16.023	55.171
16.053	55.171
16.084	55.170
16.114	55.172
16.144	55.171
16.174	55.171
16.204	55.175
16.235	55.177
16.265	55.178
16.295	55.179
16.325	55.180
16.355	55.181
16.385	55.183
16.416	55.183
16.446	55.184
16.476	55.184
16.506	55.184
16.536	55.183
16.567	55.183
16.597	55.182
16.627	55.182
16.657	55.182
16.687	55.181
16.718	55.182
16.748	55.182
16.778	55.205
16.808	55.209
16.838	55.210
16.869	55.209
16.899	55.210
16.929	55.209
16.959	55.209
16.989	55.208
17.020	55.207
17.050	55.207
17.080	55.206
17.110	55.206
17.140	55.206
17.171	55.214
17.201	55.214
17.231	55.213
17.261	55.212
17.291	55.212
17.321	55.210
17.352	55.210
17.382	55.210
17.412	55.209
17.442	55.209
17.472	55.208
17.503	55.207
17.533	55.207
17.563	55.206
17.593	55.205
17.623	55.203
17.654	55.203
17.684	55.203
17.714	55.204
17.744	55.204
17.774	55.203
17.805	55.203
17.835	55.202
17.865	55.202
17.895	55.204
17.925	55.204
17.956	55.204
17.986	55.203
18.016	55.204
18.046	55.204
18.076	55.206
18.107	55.206
18.137	55.206
18.167	55.208
18.197	55.207
18.227	55.207
18.258	55.207
18.288	55.207
18.318	55.211
18.348	55.213
18.378	55.214
18.409	55.214
18.439	55.213
18.469	55.213
18.499	55.213
18.529	55.213
18.559	55.213
18.590	55.217
18.620	55.216
18.650	55.216
18.680	55.216
18.710	55.216
18.741	55.215
18.771	55.214
18.801	55.214
18.831	55.215
18.861	55.215
18.892	55.215
18.922	55.216
18.952	55.216
18.982	55.215
19.012	55.218
19.042	55.217
19.073	55.217
19.103	55.218
19.133	55.217
19.163	55.218
19.193	55.217
19.224	55.216
19.254	55.216
19.284	55.216
19.314	55.216
19.344	55.216
19.374	55.215
19.405	55.215
19.435	55.214
19.465	55.213
19.495	55.213
19.525	55.212
19.556	55.212
19.586	55.211
19.616	55.211
19.646	55.211
19.676	55.214
19.707	55.213
19.737	55.213
19.767	55.213
19.797	55.215
19.827	55.214
19.857	55.214
19.888	55.213
19.918	55.218
19.948	55.218
19.978	55.218
20.008	55.218
20.039	55.218
20.069	55.218
20.099	55.217
20.129	55.218
20.159	55.217
20.189	55.217
20.220	55.217
20.250	55.216
20.280	55.219
20.310	55.221
20.340	55.221
20.371	55.220
20.401	55.220
20.431	55.221
20.461	55.221
20.491	55.221
20.522	55.220
20.552	55.220
20.582	55.219
20.612	55.220
20.642	55.219
20.672	55.219
20.703	55.218
20.733	55.218
20.763	55.218
20.793	55.218
20.823	55.217
20.854	55.217
20.884	55.216
20.914	55.217
20.944	55.217
20.974	55.218
21.004	55.218
21.035	55.217
21.065	55.216
21.095	55.215
21.125	55.215
21.155	55.214
21.186	55.215
21.216	55.214
21.246	55.214
21.276	55.214
21.306	55.214
21.336	55.214
21.367	55.214
21.397	55.213
21.427	55.212
21.457	55.212
21.487	55.212
21.518	55.211
21.548	55.212
21.578	55.213
21.608	55.214
21.638	55.213
21.669	55.213
21.699	55.214
21.729	55.214
21.759	55.213
21.789	55.213
21.819	55.213
21.850	55.213
21.880	55.214
21.910	55.214
21.940	55.213
21.970	55.213
22.000	55.213
22.031	55.213
22.061	55.212
22.091	55.212
22.121	55.211
22.151	55.211
22.182	55.211
22.212	55.210
22.242	55.210
22.272	55.209
22.302	55.208
22.333	55.208
22.363	55.208
22.393	55.208
22.423	55.209
22.453	55.211
22.484	55.209
22.514	55.208
22.544	55.208
22.574	55.208
22.604	55.205
22.634	55.204
22.665	55.204
22.695	55.204
22.725	55.204
22.755	55.203
22.785	55.203
22.816	55.203
22.846	55.203
22.876	55.203
22.906	55.202
22.936	55.202
22.967	55.202
22.997	55.203
23.027	55.202
23.057	55.203
23.087	55.203
23.118	55.204
23.148	55.204
23.178	55.207
23.208	55.209
23.238	55.209
23.269	55.209
23.299	55.211
23.329	55.212
23.359	55.212
23.389	55.211
23.420	55.211
23.450	55.211
23.480	55.209
23.510	55.209
23.540	55.211
23.571	55.211
23.601	55.210
23.631	55.210
23.661	55.210
23.691	55.209
23.721	55.209
23.752	55.210
23.782	55.209
23.812	55.207
23.842	55.207
23.872	55.207
23.903	55.209
23.933	55.209
23.963	55.209
23.993	55.216
24.023	55.216
24.054	55.216
24.084	55.217
24.114	55.218
24.144	55.218
24.174	55.217
24.204	55.218
24.235	55.219
24.265	55.219
24.295	55.219
24.325	55.219
24.355	55.218
24.386	55.218
24.416	55.218
24.446	55.221
24.476	55.221
24.506	55.220
24.536	55.221
24.567	55.221
24.597	55.220
24.627	55.220
24.657	55.219
24.687	55.220
24.718	55.223
24.748	55.223
24.778	55.223
24.808	55.222
24.838	55.222
24.869	55.222
24.899	55.222
24.929	55.222
24.959	55.221
24.989	55.221
25.019	55.221
25.050	55.220
25.080	55.220
25.110	55.220
25.140	55.220
25.170	55.220
25.201	55.220
25.231	55.219
25.261	55.219
25.291	55.219
25.321	55.219
25.351	55.219
25.382	55.219
25.412	55.218
25.442	55.217
25.472	55.217
25.502	55.217
25.533	55.218
25.563	55.217
25.593	55.217
25.623	55.216
25.653	55.216
25.683	55.215
25.714	55.216
25.744	55.217
25.774	55.216
25.804	55.216
25.834	55.216
25.865	55.216
25.895	55.215
25.925	55.215
25.955	55.214
25.985	55.214
26.016	55.215
26.046	55.216
26.076	55.219
26.106	55.219
26.136	55.219
26.166	55.219
26.197	55.220
26.227	55.220
26.257	55.220
26.287	55.220
26.317	55.220
26.348	55.220
26.378	55.220
26.408	55.220
26.438	55.220
26.468	55.220
26.498	55.220
26.529	55.219
26.559	55.219
26.589	55.219
26.619	55.218
26.649	55.219
26.680	55.221
26.710	55.221
26.740	55.220
26.770	55.220
26.800	55.220
26.830	55.221
26.861	55.220
26.891	55.221
26.921	55.221
26.951	55.221
26.981	55.222
27.012	55.222
27.042	55.222
27.072	55.221
27.102	55.221
27.132	55.220
27.162	55.220
27.193	55.220
27.223	55.219
27.253	55.219
27.283	55.219
27.313	55.219
27.344	55.218
27.374	55.218
27.404	55.218
27.434	55.218
27.464	55.219
27.494	55.220
27.525	55.219
27.555	55.218
27.585	55.218
27.615	55.218
27.645	55.217
27.676	55.216
27.706	55.217
27.736	55.217
27.766	55.216
27.796	55.218
27.826	55.218
27.857	55.218
27.887	55.218
27.917	55.217
27.947	55.216
27.977	55.216
28.008	55.216
28.038	55.216
28.068	55.216
28.098	55.215
28.128	55.215
28.158	55.215
28.189	55.216
28.219	55.215
28.249	55.215
28.279	55.215
28.309	55.215
28.340	55.214
28.370	55.213
28.400	55.213
28.430	55.213
28.460	55.211
28.491	55.213
28.521	55.213
28.551	55.213
28.581	55.213
28.611	55.212
28.641	55.212
28.672	55.212
28.702	55.212
28.732	55.212
28.762	55.213
28.792	55.214
28.823	55.213
28.853	55.213
28.883	55.213
28.913	55.213
28.943	55.214
28.973	55.215
29.004	55.214
29.034	55.214
29.064	55.215
29.094	55.215
29.124	55.214
29.155	55.214
29.185	55.213
29.215	55.214
29.245	55.214
29.275	55.214
29.306	55.214
29.336	55.214
29.366	55.213
29.396	55.213
29.426	55.213
29.456	55.213
29.487	55.213
29.517	55.212
29.547	55.212
29.577	55.212
29.607	55.211
29.638	55.212
29.668	55.212
29.698	55.210
29.728	55.210
29.758	55.211
29.788	55.212
29.819	55.213
29.849	55.213
29.879	55.213
29.909	55.212
29.939	55.212
29.970	55.212
30.000	55.212
30.030	55.213
30.060	55.213
30.090	55.214
30.120	55.214
30.151	55.214
30.181	55.213
30.211	55.213
30.241	55.213
30.271	55.213
30.302	55.213
30.332	55.213
30.362	55.213
30.392	55.212
30.422	55.212
30.453	55.212
30.483	55.212
30.513	55.213
30.543	55.263
30.573	55.287
30.603	55.292
30.634	55.295
30.664	55.298
30.694	55.299
30.724	55.299
30.754	55.299
30.785	55.301
30.815	55.301
30.845	55.302
30.875	55.302
30.905	55.302
30.935	55.303
30.966	55.303
30.996	55.304
31.026	55.305
31.056	55.305
31.086	55.305
31.117	55.303
31.147	55.303
31.177	55.304
31.207	55.304
31.237	55.304
31.268	55.305
31.298	55.305
31.328	55.304
31.358	55.304
31.388	55.304
31.418	55.304
31.449	55.306
31.479	55.307
31.509	55.307
31.539	55.307
31.569	55.306
31.600	55.305
31.630	55.306
31.660	55.307
31.690	55.308
31.720	55.306
31.750	55.305
31.781	55.307
31.811	55.306
31.841	55.307
31.871	55.308
31.901	55.311
31.932	55.311
31.962	55.312
31.992	55.311
32.022	55.311
32.052	55.312
32.082	55.312
32.113	55.313
32.143	55.312
32.173	55.313
32.203	55.312
32.233	55.312
32.264	55.312
32.294	55.313
32.324	55.313
32.354	55.313
32.384	55.312
32.415	55.312
32.445	55.312
32.475	55.312
32.505	55.313
32.535	55.313
32.565	55.313
32.596	55.312
32.626	55.312
32.656	55.312
32.686	55.313
32.716	55.313
32.747	55.313
32.777	55.313
32.807	55.314
32.837	55.313
32.867	55.313
32.897	55.313
32.928	55.312
32.958	55.313
32.988	55.313
33.018	55.313
33.048	55.314
33.079	55.314
33.109	55.314
33.139	55.313
33.169	55.312
33.199	55.312
33.229	55.312
33.260	55.312
33.290	55.312
33.320	55.312
33.350	55.311
33.380	55.312
33.411	55.314
33.441	55.315
33.471	55.317
33.501	55.318
33.531	55.318
33.562	55.318
33.592	55.318
33.622	55.319
33.652	55.319
33.682	55.319
33.712	55.319
33.743	55.319
33.773	55.320
33.803	55.321
33.833	55.322
33.863	55.321
33.894	55.321
33.924	55.322
33.954	55.322
33.984	55.322
34.014	55.322
34.044	55.321
34.075	55.322
34.105	55.322
34.135	55.322
34.165	55.322
34.195	55.325
34.226	55.325
34.256	55.326
34.286	55.325
34.316	55.326
34.346	55.326
34.377	55.326
34.407	55.327
34.437	55.327
34.467	55.327
34.497	55.329
34.527	55.330
34.558	55.330
34.588	55.331
34.618	55.331
34.648	55.331
34.678	55.331
34.708	55.331
34.739	55.330
34.769	55.330
34.799	55.331
34.829	55.330
34.859	55.330
34.890	55.330
34.920	55.330
34.950	55.330
34.980	55.330
35.010	55.329
35.041	55.329
35.071	55.330
35.101	55.330
35.131	55.330
35.161	55.330
35.191	55.330
35.222	55.329
35.252	55.328
35.282	55.329
35.312	55.328
35.342	55.328
35.373	55.328
35.403	55.329
35.433	55.328
35.463	55.328
35.493	55.329
35.523	55.330
35.554	55.330
35.584	55.329
35.614	55.330
35.644	55.330
35.674	55.330
35.705	55.330
35.735	55.331
35.765	55.332
35.795	55.332
35.825	55.334
35.855	55.335
35.886	55.336
35.916	55.336
35.946	55.336
35.976	55.337
36.006	55.338
36.037	55.338
36.067	55.338
36.097	55.338
36.127	55.337
36.157	55.337
36.187	55.338
36.218	55.338
36.248	55.338
36.278	55.338
36.308	55.338
36.338	55.338
36.369	55.338
36.399	55.339
36.429	55.339
36.459	55.340
36.489	55.340
36.520	55.339
36.550	55.339
36.580	55.339
36.610	55.339
36.640	55.339
36.670	55.338
36.701	55.338
36.731	55.339
36.761	55.339
36.791	55.338
36.821	55.339
36.852	55.339
36.882	55.338
36.912	55.338
36.942	55.338
36.972	55.338
37.002	55.338
37.033	55.338
37.063	55.338
37.093	55.338
37.123	55.339
37.153	55.340
37.184	55.340
37.214	55.340
37.244	55.340
37.274	55.340
37.304	55.340
37.334	55.340
37.365	55.343
37.395	55.344
37.425	55.344
37.455	55.344
37.485	55.344
37.516	55.344
37.546	55.344
37.576	55.345
37.606	55.344
37.636	55.344
37.666	55.344
37.697	55.344
37.727	55.344
37.757	55.344
37.787	55.344
37.817	55.342
37.848	55.344
37.878	55.344
37.908	55.343
37.938	55.344
37.968	55.343
37.998	55.344
38.029	55.345
38.059	55.346
38.089	55.346
38.119	55.348
38.149	55.351
38.180	55.351
38.210	55.352
38.240	55.353
38.270	55.353
38.300	55.353
38.331	55.353
38.361	55.353
38.391	55.353
38.421	55.353
38.451	55.354
38.482	55.354
38.512	55.354
38.542	55.354
38.572	55.356
38.602	55.358
38.632	55.358
38.663	55.358
38.693	55.358
38.723	55.358
38.753	55.359
38.783	55.358
38.814	55.358
38.844	55.357
38.874	55.357
38.904	55.357
38.934	55.356
38.965	55.354
38.995	55.355
39.025	55.357
39.055	55.357
39.085	55.358
39.116	55.359
39.146	55.360
39.176	55.360
39.206	55.360
39.236	55.361
39.267	55.361
39.297	55.361
39.327	55.362
39.357	55.362
39.387	55.366
39.418	55.366
39.448	55.366
39.478	55.366
39.508	55.366
39.538	55.366
39.569	55.366
39.599	55.366
39.629	55.366
39.659	55.367
39.689	55.367
39.719	55.367
39.750	55.367
39.780	55.367
39.810	55.367
39.840	55.367
39.870	55.367
39.901	55.367
39.931	55.367
39.961	55.367
39.991	55.367
40.021	55.367
40.052	55.367
40.082	55.367
40.112	55.367
40.142	55.367
40.172	55.367
40.203	55.367
40.233	55.367
40.263	55.369
40.293	55.370
40.323	55.371
40.354	55.372
40.384	55.371
40.414	55.371
40.444	55.371
40.474	55.371
40.504	55.371
40.535	55.371
40.565	55.371
40.595	55.371
40.625	55.371
40.655	55.371
40.686	55.370
40.716	55.370
40.746	55.369
40.776	55.369
40.806	55.371
40.837	55.371
40.867	55.371
40.897	55.370
40.927	55.369
40.957	55.370
40.988	55.370
41.018	55.370
41.048	55.370
41.078	55.370
41.108	55.370
41.139	55.370
41.169	55.370
41.199	55.370
41.229	55.371
41.259	55.372
41.290	55.371
41.320	55.370
41.350	55.373
41.380	55.373
41.410	55.373
41.440	55.374
41.471	55.374
41.501	55.375
41.531	55.375
41.561	55.375
41.591	55.376
41.622	55.375
41.652	55.376
41.682	55.376
41.712	55.375
41.742	55.375
41.773	55.375
41.803	55.375
41.833	55.375
41.863	55.375
41.893	55.375
41.924	55.375
41.954	55.375
41.984	55.375
42.014	55.375
42.044	55.375
42.075	55.374
42.105	55.374
42.135	55.375
42.165	55.375
42.195	55.374
42.226	55.375
42.256	55.376
42.286	55.377
42.316	55.376
42.346	55.378
42.376	55.378
42.407	55.379
42.437	55.378
42.467	55.379
42.497	55.379
42.527	55.381
42.558	55.381
42.588	55.381
42.618	55.382
42.648	55.383
42.678	55.383
42.709	55.383
42.739	55.383
42.769	55.383
42.799	55.383
42.829	55.383
42.860	55.384
42.890	55.384
42.920	55.384
42.950	55.384
42.980	55.383
43.011	55.384
43.041	55.384
43.071	55.384
43.101	55.385
43.131	55.385
43.161	55.386
43.192	55.385
43.222	55.384
43.252	55.384
43.282	55.384
43.312	55.384
43.343	55.385
43.373	55.386
43.403	55.386
43.433	55.387
43.463	55.388
43.494	55.388
43.524	55.388
43.554	55.388
43.584	55.388
43.614	55.388
43.645	55.388
43.675	55.388
43.705	55.388
43.735	55.388
43.765	55.388
43.796	55.388
43.826	55.388
43.856	55.388
43.886	55.388
43.916	55.389
43.947	55.391
43.977	55.391
44.007	55.391
44.037	55.391
44.067	55.391
44.097	55.391
44.128	55.391
44.158	55.391
44.188	55.391
44.218	55.395
44.248	55.396
44.279	55.396
44.309	55.397
44.339	55.397
44.369	55.396
44.399	55.397
44.430	55.397
44.460	55.398
44.490	55.399
44.520	55.399
44.550	55.399
44.581	55.398
44.611	55.399
44.641	55.399
44.671	55.399
44.701	55.400
44.732	55.400
44.762	55.401
44.792	55.402
44.822	55.403
44.852	55.403
44.883	55.403
44.913	55.402
44.943	55.402
44.973	55.402
45.003	55.402
45.034	55.401
45.064	55.402
45.094	55.402
45.124	55.402
45.154	55.403
45.185	55.403
45.215	55.402
45.245	55.402
45.275	55.402
45.305	55.402
45.336	55.403
45.366	55.403
45.396	55.403
45.426	55.403
45.456	55.403
45.486	55.404
45.517	55.405
45.547	55.407
45.577	55.406
45.607	55.407
45.637	55.408
45.668	55.407
45.698	55.412
45.728	55.413
45.758	55.413
45.788	55.413
45.819	55.413
45.849	55.413
45.879	55.413
45.909	55.412
45.939	55.412
45.969	55.413
46.000	55.413
46.030	55.413
46.060	55.413
46.090	55.413
46.120	55.413
46.151	55.413
46.181	55.413
46.211	55.412
46.241	55.412
46.271	55.412
46.301	55.412
46.332	55.413
46.362	55.412
46.392	55.412
46.422	55.414
46.452	55.415
46.482	55.415
46.513	55.415
46.543	55.415
46.573	55.415
46.603	55.415
46.633	55.414
46.664	55.414
46.694	55.415
46.724	55.415
46.754	55.414
46.784	55.415
46.814	55.415
46.845	55.415
46.875	55.415
46.905	55.416
46.935	55.416
46.965	55.416
46.996	55.417
47.026	55.417
47.056	55.417
47.086	55.417
47.116	55.417
47.146	55.417
47.177	55.417
47.207	55.417
47.237	55.417
47.267	55.417
47.297	55.416
47.328	55.417
47.358	55.417
47.388	55.417
47.418	55.418
47.448	55.418
47.478	55.418
47.509	55.418
47.539	55.418
47.569	55.418
47.599	55.418
47.629	55.418
47.660	55.418
47.690	55.419
47.720	55.419
47.750	55.419
47.780	55.419
47.810	55.419
47.841	55.419
47.871	55.419
47.901	55.419
47.931	55.419
47.961	55.419
47.992	55.419
48.022	55.419
48.052	55.419
48.082	55.420
48.112	55.420
48.143	55.420
48.173	55.420
48.203	55.420
48.233	55.421
48.263	55.422
48.293	55.421
48.324	55.421
48.354	55.423
48.384	55.423
48.414	55.423
48.444	55.423
48.475	55.422
48.505	55.425
48.535	55.425
48.565	55.425
48.595	55.428
48.625	55.428
48.656	55.428
48.686	55.427
48.716	55.428
48.746	55.429
48.776	55.430
48.807	55.430
48.837	55.430
48.867	55.430
48.897	55.430
48.927	55.430
48.958	55.430
48.988	55.430
49.018	55.430
49.048	55.430
49.078	55.430
49.108	55.430
49.139	55.429
49.169	55.429
49.199	55.429
49.229	55.429
49.259	55.429
49.290	55.431
49.320	55.433
49.350	55.433
49.380	55.433
49.410	55.434
49.440	55.434
49.471	55.434
49.501	55.434
49.531	55.434
49.561	55.434
49.591	55.434
49.622	55.434
49.652	55.434
49.682	55.434
49.712	55.434
49.742	55.434
49.772	55.434
49.803	55.434
49.833	55.434
49.863	55.434
49.893	55.434
49.923	55.434
49.954	55.434
49.984	55.434
50.014	55.434
50.044	55.434
50.074	55.434
50.104	55.433
50.135	55.434
50.165	55.433
50.195	55.433
50.225	55.433
50.255	55.432
50.286	55.432
50.316	55.432
50.346	55.432
50.376	55.432
50.406	55.431
50.436	55.432
50.467	55.432
50.497	55.432
50.527	55.433
50.557	55.433
50.587	55.434
50.618	55.434
50.648	55.434
50.678	55.434
50.708	55.434
50.738	55.434
50.768	55.434
50.799	55.433
50.829	55.434
50.859	55.434
50.889	55.433
50.919	55.434
50.950	55.434
50.980	55.434
51.010	55.434
51.040	55.433
51.070	55.434
51.100	55.434
51.131	55.434
51.161	55.435
51.191	55.435
51.221	55.435
51.251	55.435
51.282	55.435
51.312	55.435
51.342	55.435
51.372	55.436
51.402	55.437
51.432	55.437
51.463	55.437
51.493	55.438
51.523	55.437
51.553	55.437
51.583	55.438
51.614	55.438
51.644	55.439
51.674	55.439
51.704	55.439
51.734	55.439
51.764	55.439
51.795	55.439
51.825	55.439
51.855	55.439
51.885	55.439
51.915	55.439
51.945	55.439
51.976	55.440
52.006	55.440
52.036	55.440
52.066	55.440
52.096	55.441
52.127	55.441
52.157	55.441
52.187	55.441
52.217	55.440
52.247	55.440
52.277	55.441
52.308	55.441
52.338	55.441
52.368	55.441
52.398	55.441
52.428	55.441
52.459	55.441
52.489	55.442
52.519	55.442
52.549	55.442
52.579	55.444
52.609	55.444
52.640	55.444
52.670	55.444
52.700	55.444
52.730	55.444
52.760	55.443
52.791	55.443
52.821	55.444
52.851	55.446
52.881	55.446
52.911	55.447
52.941	55.447
52.972	55.447
53.002	55.447
53.032	55.447
53.062	55.447
53.092	55.448
53.123	55.448
53.153	55.449
53.183	55.449
53.213	55.448
53.243	55.450
53.273	55.450
53.304	55.450
53.334	55.450
53.364	55.450
53.394	55.451
53.424	55.451
53.455	55.450
53.485	55.450
53.515	55.450
53.545	55.450
53.575	55.450
53.605	55.450
53.636	55.450
53.666	55.450
53.696	55.450
53.726	55.449
53.756	55.450
53.786	55.450
53.817	55.450
53.847	55.450
53.877	55.450
53.907	55.450
53.937	55.450
53.968	55.449
53.998	55.450
54.028	55.449
54.058	55.449
54.088	55.449
54.119	55.449
54.149	55.449
54.179	55.450
54.209	55.450
54.239	55.450
54.269	55.450
54.300	55.451
54.330	55.450
54.360	55.450
54.390	55.450
54.420	55.449
54.451	55.448
54.481	55.448
54.511	55.451
54.541	55.451
54.571	55.451
54.601	55.451
54.632	55.452
54.662	55.452
54.692	55.452
54.722	55.452
54.752	55.452
54.783	55.452
54.813	55.453
54.843	55.455
54.873	55.457
54.903	55.457
54.933	55.459
54.964	55.460
54.994	55.460
55.024	55.460
55.054	55.460
55.084	55.461
55.114	55.460
55.145	55.461
55.175	55.461
55.205	55.461
55.235	55.461
55.265	55.462
55.296	55.461
55.326	55.461
55.356	55.462
55.386	55.462
55.416	55.462
55.446	55.463
55.477	55.463
55.507	55.463
55.537	55.464
55.567	55.464
55.597	55.464
55.628	55.464
55.658	55.464
55.688	55.464
55.718	55.464
55.748	55.464
55.778	55.464
55.809	55.464
55.839	55.465
55.869	55.466
55.899	55.466
55.929	55.466
55.960	55.466
55.990	55.466
56.020	55.466
56.050	55.466
56.080	55.466
56.110	55.466
56.141	55.466
56.171	55.467
56.201	55.467
56.231	55.467
56.261	55.467
56.292	55.467
56.322	55.467
56.352	55.466
56.382	55.466
56.412	55.466
56.442	55.466
56.473	55.466
56.503	55.466
56.533	55.467
56.563	55.466
56.593	55.466
56.624	55.466
56.654	55.467
56.684	55.467
56.714	55.467
56.744	55.467
56.774	55.467
56.805	55.467
56.835	55.467
56.865	55.467
56.895	55.466
56.925	55.467
56.956	55.468
56.986	55.468
57.016	55.467
57.046	55.467
57.076	55.469
57.106	55.469
57.137	55.470
57.167	55.471
57.197	55.471
57.227	55.471
57.257	55.471
57.287	55.472
57.318	55.471
57.348	55.472
57.378	55.472
57.408	55.472
57.438	55.472
57.469	55.473
57.499	55.472
57.529	55.472
57.559	55.472
57.589	55.473
57.620	55.473
57.650	55.473
57.680	55.473
57.710	55.473
57.740	55.473
57.770	55.473
57.801	55.473
57.831	55.473
57.861	55.473
57.891	55.474
57.921	55.473
57.951	55.474
57.982	55.474
58.012	55.475
58.042	55.476
58.072	55.477
58.102	55.477
58.133	55.477
58.163	55.477
58.193	55.477
58.223	55.477
58.253	55.477
58.283	55.477
58.314	55.477
58.344	55.477
58.374	55.477
58.404	55.477
58.434	55.478
58.465	55.477
58.495	55.477
58.525	55.477
58.555	55.479
58.585	55.481
58.615	55.481
58.646	55.481
58.676	55.482
58.706	55.482
58.736	55.482
58.766	55.482
58.797	55.482
58.827	55.482
58.857	55.482
58.887	55.483
58.917	55.483
58.947	55.483
58.978	55.483
59.008	55.483
59.038	55.484
59.068	55.484
59.098	55.484
59.129	55.484
59.159	55.484
59.189	55.484
59.219	55.485
59.249	55.486
59.279	55.486
59.310	55.486
59.340	55.486
59.370	55.487
59.400	55.488
59.430	55.488
59.461	55.487
59.491	55.487
59.521	55.488
59.551	55.488
59.581	55.488
59.611	55.488
59.642	55.488
59.672	55.488
59.702	55.488
59.732	55.488
59.762	55.489
59.792	55.489
59.823	55.489
59.853	55.489
59.883	55.489
59.913	55.489
59.943	55.489
59.974	55.489
60.004	55.490
60.034	55.490
60.064	55.491
60.094	55.491
60.125	55.491
60.155	55.491
60.185	55.491
60.215	55.491
60.245	55.491
60.275	55.491
60.306	55.493
60.336	55.493
60.366	55.493
60.396	55.493
60.426	55.493
60.456	55.493
60.487	55.494
60.517	55.494
60.547	55.495
60.577	55.495
60.607	55.495
60.638	55.495
60.668	55.495
60.698	55.495
60.728	55.495
60.758	55.494
60.788	55.494
60.819	55.494
60.849	55.494
60.879	55.494
60.909	55.495
60.939	55.496
60.970	55.496
61.000	55.496
61.030	55.496
61.060	55.496
61.090	55.496
61.120	55.496
61.151	55.496
61.181	55.496
61.211	55.497
61.241	55.497
61.271	55.497
61.302	55.497
61.332	55.497
61.362	55.497
61.392	55.497
61.422	55.497
61.452	55.497
61.483	55.497
61.513	55.497
61.543	55.499
61.573	55.499
61.603	55.499
61.634	55.500
61.664	55.500
61.694	55.500
61.724	55.500
61.754	55.500
61.784	55.500
61.815	55.501
61.845	55.500
61.875	55.501
61.905	55.501
61.935	55.501
61.966	55.501
61.996	55.501
62.026	55.503
62.056	55.503
62.086	55.504
62.116	55.504
62.147	55.504
62.177	55.503
62.207	55.503
62.237	55.504
62.267	55.504
62.298	55.503
62.328	55.503
62.358	55.503
62.388	55.503
62.418	55.503
62.448	55.503
62.479	55.503
62.509	55.503
62.539	55.504
62.569	55.504
62.599	55.504
62.629	55.504
62.660	55.504
62.690	55.504
62.720	55.504
62.750	55.505
62.780	55.505
62.811	55.505
62.841	55.505
62.871	55.506
62.901	55.505
62.931	55.505
62.961	55.505
62.992	55.505
63.022	55.504
63.052	55.505
63.082	55.506
63.112	55.506
63.142	55.506
63.173	55.507
63.203	55.509
63.233	55.509
63.263	55.509
63.293	55.510
63.324	55.510
63.354	55.510
63.384	55.510
63.414	55.511
63.444	55.511
63.474	55.511
63.505	55.511
63.535	55.512
63.565	55.513
63.595	55.513
63.625	55.513
63.656	55.513
63.686	55.514
63.716	55.514
63.746	55.515
63.776	55.516
63.806	55.517
63.837	55.518
63.867	55.518
63.897	55.518
63.927	55.518
63.957	55.518
63.987	55.519
64.018	55.519
64.048	55.520
64.078	55.520
64.108	55.520
64.138	55.520
64.169	55.520
64.199	55.520
64.229	55.520
64.259	55.520
64.289	55.520
64.319	55.520
64.350	55.521
64.380	55.522
64.410	55.521
64.440	55.522
64.470	55.522
64.501	55.522
64.531	55.522
64.561	55.522
64.591	55.522
64.621	55.522
64.651	55.523
64.682	55.523
64.712	55.523
64.742	55.523
64.772	55.523
64.802	55.523
64.833	55.523
64.863	55.524
64.893	55.524
64.923	55.524
64.953	55.524
64.984	55.526
65.014	55.526
65.044	55.527
65.074	55.528
65.104	55.530
65.134	55.532
65.165	55.534
65.195	55.535
65.225	55.535
65.255	55.535
65.285	55.535
65.315	55.535
65.346	55.536
65.376	55.536
65.406	55.536
65.436	55.537
65.466	55.537
65.497	55.538
65.527	55.540
65.557	55.540
65.587	55.541
65.617	55.542
65.647	55.542
65.678	55.542
65.708	55.542
65.738	55.542
65.768	55.542
65.798	55.542
65.829	55.542
65.859	55.542
65.889	55.542
65.919	55.542
65.949	55.542
65.979	55.542
66.010	55.542
66.040	55.542
66.070	55.542
66.100	55.542
66.130	55.542
66.160	55.542
66.191	55.542
66.221	55.542
66.251	55.542
66.281	55.543
66.311	55.543
66.342	55.543
66.372	55.543
66.402	55.543
66.432	55.543
66.462	55.543
66.492	55.543
66.523	55.543
66.553	55.545
66.583	55.545
66.613	55.545
66.643	55.546
66.674	55.546
66.704	55.546
66.734	55.546
66.764	55.545
66.794	55.545
66.824	55.546
66.855	55.546
66.885	55.547
66.915	55.547
66.945	55.547
66.975	55.547
67.006	55.547
67.036	55.547
67.066	55.548
67.096	55.548
67.126	55.548
67.156	55.548
67.187	55.548
67.217	55.548
67.247	55.548
67.277	55.549
67.307	55.549
67.338	55.549
67.368	55.549
67.398	55.550
67.428	55.550
67.458	55.550
67.489	55.550
67.519	55.550
67.549	55.549
67.579	55.549
67.609	55.549
67.640	55.549
67.670	55.549
67.700	55.550
67.730	55.550
67.760	55.550
67.790	55.550
67.821	55.550
67.851	55.550
67.881	55.550
67.911	55.551
67.941	55.551
67.972	55.551
68.002	55.552
68.032	55.553
68.062	55.554
68.092	55.554
68.123	55.554
68.153	55.554
68.183	55.554
68.213	55.554
68.243	55.554
68.274	55.556
68.304	55.556
68.334	55.555
68.364	55.556
68.394	55.556
68.425	55.556
68.455	55.556
68.485	55.556
68.515	55.556
68.545	55.557
68.575	55.557
68.606	55.557
68.636	55.557
68.666	55.556
68.696	55.556
68.726	55.556
68.757	55.557
68.787	55.557
68.817	55.557
68.847	55.557
68.877	55.557
68.908	55.557
68.938	55.557
68.968	55.557
68.998	55.556
69.028	55.556
69.058	55.556
69.089	55.556
69.119	55.557
69.149	55.556
69.179	55.557
69.209	55.557
69.240	55.556
69.270	55.557
69.300	55.557
69.330	55.557
69.360	55.557
69.391	55.557
69.421	55.559
69.451	55.559
69.481	55.559
69.511	55.559
69.542	55.560
69.572	55.560
69.602	55.560
69.632	55.559
69.662	55.559
69.693	55.559
69.723	55.559
69.753	55.560
69.783	55.559
69.813	55.560
69.843	55.560
69.874	55.560
69.904	55.560
69.934	55.560
69.964	55.560
69.994	55.560
70.025	55.560
70.055	55.561
70.085	55.561
70.115	55.561
70.145	55.561
70.176	55.562
70.206	55.562
70.236	55.562
70.266	55.562
70.296	55.562
70.327	55.562
70.357	55.562
70.387	55.563
70.417	55.562
70.447	55.562
70.478	55.563
70.508	55.562
70.538	55.563
70.568	55.562
70.598	55.562
70.629	55.562
70.659	55.562
70.689	55.562
70.719	55.563
70.749	55.562
70.780	55.563
70.810	55.563
70.840	55.564
70.870	55.564
70.900	55.564
70.930	55.564
70.961	55.564
70.991	55.564
71.021	55.564
71.051	55.565
71.081	55.565
71.112	55.565
71.142	55.565
71.172	55.565
71.202	55.565
71.232	55.565
71.263	55.565
71.293	55.566
71.323	55.567
71.353	55.567
71.383	55.567
71.414	55.567
71.444	55.567
71.474	55.567
71.504	55.567
71.534	55.567
71.565	55.567
71.595	55.567
71.625	55.567
71.655	55.567
71.685	55.567
71.716	55.567
71.746	55.567
71.776	55.567
71.806	55.567
71.836	55.567
71.866	55.567
71.897	55.567
71.927	55.567
71.957	55.568
71.987	55.567
72.017	55.567
72.048	55.568
72.078	55.568
72.108	55.568
72.138	55.567
72.168	55.568
72.199	55.568
72.229	55.568
72.259	55.568
72.289	55.569
72.319	55.570
72.349	55.570
72.380	55.570
72.410	55.570
72.440	55.571
72.470	55.571
72.500	55.571
72.531	55.571
72.561	55.571
72.591	55.571
72.621	55.572
72.651	55.571
72.682	55.572
72.712	55.571
72.742	55.572
72.772	55.572
72.802	55.571
72.833	55.571
72.863	55.571
72.893	55.571
72.923	55.572
72.953	55.572
72.983	55.572
73.014	55.572
73.044	55.572
73.074	55.572
73.104	55.572
73.134	55.572
73.165	55.572
73.195	55.572
73.225	55.572
73.255	55.572
73.285	55.572
73.316	55.572
73.346	55.571
73.376	55.571
73.406	55.571
73.436	55.572
73.467	55.571
73.497	55.571
73.527	55.571
73.557	55.572
73.587	55.572
73.617	55.572
73.648	55.572
73.678	55.572
73.708	55.572
73.738	55.572
73.768	55.572
73.799	55.572
73.829	55.572
73.859	55.572
73.889	55.572
73.919	55.572
73.950	55.572
73.980	55.572
74.010	55.572
74.040	55.572
74.070	55.572
74.101	55.573
74.131	55.573
74.161	55.573
74.191	55.572
74.221	55.572
74.252	55.573
74.282	55.572
74.312	55.573
74.342	55.572
74.372	55.572
74.402	55.572
74.433	55.572
74.463	55.572
74.493	55.572
74.523	55.572
74.553	55.572
74.584	55.572
74.614	55.572
74.644	55.572
74.674	55.572
74.704	55.572
74.735	55.572
74.765	55.572
74.795	55.571
74.825	55.572
74.855	55.572
74.886	55.573
74.916	55.572
74.946	55.572
74.976	55.572
75.006	55.572
75.037	55.571
75.067	55.569
75.097	55.571
75.127	55.571
75.157	55.572
75.187	55.572
75.218	55.572
75.248	55.572
75.278	55.572
75.308	55.572
75.338	55.573
75.369	55.573
75.399	55.574
75.429	55.573
75.459	55.573
75.489	55.574
75.520	55.574
75.550	55.574
75.580	55.574
75.610	55.574
75.640	55.574
75.671	55.575
75.701	55.575
75.731	55.575
75.761	55.576
75.791	55.576
75.821	55.576
75.852	55.575
75.882	55.575
75.912	55.575
75.942	55.575
75.972	55.575
76.003	55.575
76.033	55.576
76.063	55.576
76.093	55.576
76.123	55.575
76.154	55.575
76.184	55.576
76.214	55.576
76.244	55.577
76.274	55.577
76.305	55.577
76.335	55.577
76.365	55.578
76.395	55.579
76.425	55.580
76.455	55.580
76.486	55.580
76.516	55.580
76.546	55.580
76.576	55.580
76.606	55.581
76.637	55.581
76.667	55.581
76.697	55.581
76.727	55.582
76.757	55.582
76.788	55.582
76.818	55.582
76.848	55.582
76.878	55.582
76.908	55.582
76.939	55.583
76.969	55.582
76.999	55.583
77.029	55.583
77.059	55.583
77.090	55.582
77.120	55.583
77.150	55.582
77.180	55.582
77.210	55.581
77.240	55.582
77.271	55.582
77.301	55.582
77.331	55.582
77.361	55.582
77.391	55.582
77.422	55.582
77.452	55.583
77.482	55.583
77.512	55.582
77.542	55.582
77.573	55.583
77.603	55.583
77.633	55.583
77.663	55.583
77.693	55.583
77.723	55.582
77.754	55.582
77.784	55.585
77.814	55.585
77.844	55.585
77.875	55.585
77.905	55.585
77.935	55.585
77.965	55.585
77.995	55.585
78.025	55.586
78.056	55.586
78.086	55.586
78.116	55.586
78.146	55.586
78.176	55.586
78.207	55.586
78.237	55.587
78.267	55.587
78.297	55.587
78.327	55.587
78.358	55.587
78.388	55.587
78.418	55.587
78.448	55.587
78.478	55.588
78.509	55.588
78.539	55.588
78.569	55.588
78.599	55.588
78.629	55.588
78.659	55.589
78.690	55.589
78.720	55.589
78.750	55.589
78.780	55.590
78.810	55.590
78.841	55.591
78.871	55.591
78.901	55.591
78.931	55.591
78.961	55.592
78.992	55.592
79.022	55.592
79.052	55.592
79.082	55.592
79.112	55.593
79.143	55.592
79.173	55.592
79.203	55.593
79.233	55.592
79.263	55.592
79.294	55.593
79.324	55.593
79.354	55.594
79.384	55.595
79.414	55.597
79.444	55.597
79.475	55.598
79.505	55.598
79.535	55.598
79.565	55.598
79.595	55.599
79.626	55.598
79.656	55.598
79.686	55.599
79.716	55.599
79.746	55.600
79.777	55.601
79.807	55.601
79.837	55.601
79.867	55.601
79.897	55.602
79.927	55.602
79.958	55.602
79.988	55.603
80.018	55.602
80.048	55.602
80.078	55.602
80.109	55.603
80.139	55.603
80.169	55.603
80.199	55.603
80.229	55.603
80.260	55.603
80.290	55.603
80.320	55.603
80.350	55.603
80.380	55.604
80.410	55.604
80.441	55.605
80.471	55.615
80.501	55.617
80.531	55.618
80.561	55.620
80.592	55.621
80.622	55.621
80.652	55.621
80.682	55.622
80.712	55.622
80.742	55.622
80.773	55.622
80.803	55.622
80.833	55.622
80.863	55.623
80.893	55.623
80.924	55.624
80.954	55.624
80.984	55.624
81.014	55.624
81.044	55.624
81.074	55.625
81.105	55.627
81.135	55.627
81.165	55.627
81.195	55.627
81.225	55.627
81.255	55.627
81.286	55.628
81.316	55.628
81.346	55.628
81.376	55.628
81.406	55.628
81.436	55.628
81.467	55.628
81.497	55.628
81.527	55.628
81.557	55.629
81.587	55.629
81.618	55.629
81.648	55.630
81.678	55.630
81.708	55.630
81.738	55.630
81.768	55.630
81.799	55.629
81.829	55.629
81.859	55.630
81.889	55.631
81.919	55.631
81.950	55.631
81.980	55.631
82.010	55.632
82.040	55.632
82.070	55.632
82.100	55.632
82.131	55.631
82.161	55.632
82.191	55.632
82.221	55.632
82.251	55.632
82.282	55.632
82.312	55.632
82.342	55.632
82.372	55.632
82.402	55.632
82.432	55.632
82.463	55.632
82.493	55.632
82.523	55.632
82.553	55.632
82.583	55.632
82.613	55.633
82.644	55.633
82.674	55.635
82.704	55.635
82.734	55.636
82.764	55.636
82.795	55.636
82.825	55.637
82.855	55.638
82.885	55.638
82.915	55.639
82.945	55.639
82.976	55.639
83.006	55.639
83.036	55.639
83.066	55.639
83.096	55.639
83.127	55.640
83.157	55.640
83.187	55.640
83.217	55.640
83.247	55.640
83.277	55.640
83.308	55.640
83.338	55.640
83.368	55.640
83.398	55.640
83.428	55.640
83.458	55.640
83.489	55.640
83.519	55.640
83.549	55.640
83.579	55.640
83.609	55.640
83.640	55.640
83.670	55.640
83.700	55.640
83.730	55.640
83.760	55.640
83.790	55.640
83.821	55.640
83.851	55.640
83.881	55.641
83.911	55.641
83.941	55.641
83.972	55.641
84.002	55.641
84.032	55.641
84.062	55.641
84.092	55.642
84.123	55.641
84.153	55.641
84.183	55.641
84.213	55.640
84.243	55.641
84.273	55.641
84.304	55.642
84.334	55.642
84.364	55.643
84.394	55.643
84.424	55.643
84.454	55.643
84.485	55.643
84.515	55.643
84.545	55.643
84.575	55.644
84.605	55.644
84.636	55.643
84.666	55.643
84.696	55.643
84.726	55.644
84.756	55.644
84.787	55.643
84.817	55.643
84.847	55.644
84.877	55.644
84.907	55.644
84.937	55.644
84.968	55.644
84.998	55.644
85.028	55.644
85.058	55.644
85.088	55.644
85.119	55.644
85.149	55.644
85.179	55.644
85.209	55.645
85.239	55.645
85.269	55.645
85.300	55.645
85.330	55.644
85.360	55.645
85.390	55.645
85.420	55.645
85.451	55.645
85.481	55.645
85.511	55.645
85.541	55.644
85.571	55.645
85.601	55.646
85.632	55.646
85.662	55.646
85.692	55.646
85.722	55.646
85.752	55.646
85.782	55.647
85.813	55.647
85.843	55.648
85.873	55.648
85.903	55.648
85.933	55.649
85.964	55.649
85.994	55.649
86.024	55.649
86.054	55.649
86.084	55.648
86.114	55.648
86.145	55.648
86.175	55.648
86.205	55.647
86.235	55.648
86.265	55.648
86.296	55.648
86.326	55.647
86.356	55.647
86.386	55.649
86.416	55.650
86.446	55.650
86.477	55.651
86.507	55.650
86.537	55.652
86.567	55.651
86.597	55.651
86.628	55.651
86.658	55.651
86.688	55.652
86.718	55.653
86.748	55.653
86.778	55.654
86.809	55.654
86.839	55.654
86.869	55.654
86.899	55.655
86.929	55.655
86.960	55.655
86.990	55.656
87.020	55.656
87.050	55.656
87.080	55.656
87.110	55.657
87.141	55.657
87.171	55.657
87.201	55.657
87.231	55.657
87.261	55.658
87.291	55.659
87.322	55.659
87.352	55.659
87.382	55.659
87.412	55.659
87.442	55.659
87.473	55.659
87.503	55.659
87.533	55.659
87.563	55.661
87.593	55.661
87.623	55.661
87.654	55.662
87.684	55.662
87.714	55.662
87.744	55.662
87.774	55.662
87.804	55.662
87.835	55.663
87.865	55.664
87.895	55.664
87.925	55.663
87.955	55.663
87.986	55.664
88.016	55.664
88.046	55.664
88.076	55.664
88.106	55.664
88.136	55.664
88.167	55.665
88.197	55.665
88.227	55.665
88.257	55.665
88.287	55.665
88.317	55.665
88.348	55.665
88.378	55.665
88.408	55.665
88.438	55.665
88.468	55.665
88.499	55.665
88.529	55.665
88.559	55.665
88.589	55.665
88.619	55.665
88.649	55.664
88.680	55.664
88.710	55.664
88.740	55.664
88.770	55.664
88.800	55.665
88.831	55.665
88.861	55.665
88.891	55.665
88.921	55.666
88.951	55.666
88.981	55.666
89.012	55.666
89.042	55.666
89.072	55.666
89.102	55.666
89.132	55.666
89.163	55.673
89.193	55.674
89.223	55.674
89.253	55.674
89.283	55.674
89.313	55.675
89.344	55.675
89.374	55.675
89.404	55.676
89.434	55.676
89.464	55.676
89.494	55.676
89.525	55.676
89.555	55.676
89.585	55.676
89.615	55.676
89.645	55.676
89.676	55.676
89.706	55.677
89.736	55.678
89.766	55.678
89.796	55.679
89.826	55.679
89.857	55.679
89.887	55.679
89.917	55.679
89.947	55.679
89.977	55.679
90.008	55.680
90.038	55.680
90.068	55.680
90.098	55.680
90.128	55.680
90.158	55.680
90.189	55.680
90.219	55.681
90.249	55.681
90.279	55.681
90.309	55.681
90.340	55.681
90.370	55.681
90.400	55.681
90.430	55.681
90.460	55.681
90.490	55.681
90.521	55.682
90.551	55.682
90.581	55.682
90.611	55.682
90.641	55.682
90.671	55.682
90.702	55.682
90.732	55.682
90.762	55.682
90.792	55.683
90.822	55.683
90.852	55.684
90.883	55.684
90.913	55.685
90.943	55.687
90.973	55.687
91.003	55.688
91.034	55.688
91.064	55.688
91.094	55.688
91.124	55.688
91.154	55.688
91.184	55.688
91.215	55.688
91.245	55.688
91.275	55.688
91.305	55.688
91.335	55.688
91.366	55.688
91.396	55.689
91.426	55.689
91.456	55.689
91.486	55.688
91.516	55.688
91.547	55.688
91.577	55.689
91.607	55.689
91.637	55.689
91.667	55.689
91.698	55.689
91.728	55.689
91.758	55.689
91.788	55.689
91.818	55.690
91.848	55.690
91.879	55.690
91.909	55.690
91.939	55.690
91.969	55.690
91.999	55.690
92.030	55.690
92.060	55.690
92.090	55.690
92.120	55.690
92.150	55.690
92.180	55.690
92.211	55.691
92.241	55.691
92.271	55.691
92.301	55.691
92.331	55.691
92.361	55.691
92.392	55.692
92.422	55.692
92.452	55.692
92.482	55.691
92.512	55.691
92.543	55.692
92.573	55.692
92.603	55.692
92.633	55.691
92.663	55.691
92.693	55.691
92.724	55.691
92.754	55.691
92.784	55.691
92.814	55.691
92.844	55.691
92.874	55.691
92.905	55.691
92.935	55.691
92.965	55.691
92.995	55.691
93.025	55.691
93.056	55.691
93.086	55.691
93.116	55.691
93.146	55.691
93.176	55.691
93.206	55.691
93.237	55.691
93.267	55.691
93.297	55.691
93.327	55.691
93.357	55.692
93.387	55.692
93.418	55.692
93.448	55.692
93.478	55.692
93.508	55.692
93.538	55.692
93.568	55.692
93.599	55.692
93.629	55.692
93.659	55.692
93.689	55.692
93.719	55.692
93.750	55.692
93.780	55.692
93.810	55.692
93.840	55.692
93.870	55.692
93.900	55.692
93.931	55.692
93.961	55.694
93.991	55.694
94.021	55.694
94.051	55.695
94.082	55.696
94.112	55.696
94.142	55.696
94.172	55.695
94.202	55.696
94.232	55.696
94.263	55.696
94.293	55.696
94.323	55.696
94.353	55.696
94.383	55.696
94.414	55.697
94.444	55.697
94.474	55.697
94.504	55.697
94.534	55.697
94.564	55.697
94.595	55.697
94.625	55.697
94.655	55.697
94.685	55.697
94.715	55.697
94.746	55.697
94.776	55.697
94.806	55.697
94.836	55.697
94.866	55.697
94.896	55.697
94.927	55.697
94.957	55.698
94.987	55.698
95.017	55.698
95.047	55.698
95.078	55.698
95.108	55.698
95.138	55.698
95.168	55.698
95.198	55.698
95.228	55.698
95.259	55.698
95.289	55.698
95.319	55.698
95.349	55.698
95.379	55.698
95.409	55.698
95.440	55.699
95.470	55.701
95.500	55.701
95.530	55.701
95.560	55.701
95.591	55.702
95.621	55.701
95.651	55.702
95.681	55.701
95.711	55.701
95.741	55.702
95.772	55.702
95.802	55.702
95.832	55.702
95.862	55.702
95.892	55.702
95.923	55.702
95.953	55.702
95.983	55.702
96.013	55.702
96.043	55.702
96.074	55.702
96.104	55.702
96.134	55.702
96.164	55.702
96.194	55.702
96.224	55.702
96.255	55.702
96.285	55.702
96.315	55.702
96.345	55.702
96.375	55.702
96.406	55.703
96.436	55.703
96.466	55.703
96.496	55.703
96.526	55.703
96.556	55.703
96.587	55.703
96.617	55.703
96.647	55.703
96.677	55.703
96.707	55.703
96.738	55.703
96.768	55.703
96.798	55.703
96.828	55.703
96.858	55.704
96.888	55.704
96.919	55.704
96.949	55.704
96.979	55.704
97.009	55.704
97.039	55.704
97.069	55.704
97.100	55.704
97.130	55.703
97.160	55.704
97.190	55.704
97.220	55.704
97.251	55.704
97.281	55.704
97.311	55.704
97.341	55.704
97.371	55.704
97.402	55.704
97.432	55.704
97.462	55.704
97.492	55.704
97.522	55.704
97.552	55.704
97.583	55.704
97.613	55.704
97.643	55.704
97.673	55.705
97.703	55.705
97.733	55.705
97.764	55.705
97.794	55.705
97.824	55.706
97.854	55.709
97.884	55.710
97.915	55.710
97.945	55.711
97.975	55.711
98.005	55.711
98.035	55.711
98.065	55.711
98.096	55.711
98.126	55.711
98.156	55.712
98.186	55.712
98.216	55.712
98.247	55.712
98.277	55.712
98.307	55.712
98.337	55.712
98.367	55.712
98.397	55.712
98.428	55.712
98.458	55.712
98.488	55.712
98.518	55.712
98.548	55.713
98.578	55.713
98.609	55.713
98.639	55.713
98.669	55.713
98.699	55.713
98.729	55.713
98.760	55.715
98.790	55.715
98.820	55.714
98.850	55.714
98.880	55.714
98.910	55.715
98.941	55.714
98.971	55.715
99.001	55.715
99.031	55.715
99.061	55.715
99.092	55.716
99.122	55.715
99.152	55.716
99.182	55.716
99.212	55.716
99.242	55.716
99.273	55.716
99.303	55.716
99.333	55.716
99.363	55.716
99.393	55.716
99.424	55.716
99.454	55.716
99.484	55.716
99.514	55.716
99.544	55.716
99.574	55.716
99.605	55.716
99.635	55.716
99.665	55.716
99.695	55.716
99.725	55.716
99.755	55.716
99.786	55.716
99.816	55.716
99.846	55.716
99.876	55.716
99.906	55.716
99.937	55.716
99.967	55.716
99.997	55.716
100.027	55.716
100.057	55.715
100.088	55.715
100.118	55.716
100.148	55.715
100.178	55.714
100.208	55.715
100.238	55.717
100.269	55.717
100.299	55.717
100.329	55.719
100.359	55.719
100.389	55.720
100.419	55.720
100.450	55.720
100.480	55.720
100.510	55.720
100.540	55.720
100.570	55.720
100.601	55.720
100.631	55.721
100.661	55.720
100.691	55.721
100.721	55.720
100.751	55.721
100.782	55.721
100.812	55.721
100.842	55.721
100.872	55.722
100.902	55.721
100.933	55.721
100.963	55.722
100.993	55.722
101.023	55.722
101.053	55.722
101.083	55.722
101.114	55.722
101.144	55.722
101.174	55.722
101.204	55.722
101.234	55.722
101.265	55.723
101.295	55.725
101.325	55.725
101.355	55.725
101.385	55.725
101.415	55.725
101.446	55.725
101.476	55.725
101.506	55.725
101.536	55.725
101.566	55.725
101.597	55.726
101.627	55.726
101.657	55.726
101.687	55.726
101.717	55.727
101.747	55.726
101.778	55.727
101.808	55.727
101.838	55.727
101.868	55.727
101.898	55.727
101.929	55.728
101.959	55.728
101.989	55.727
102.019	55.727
102.049	55.727
102.079	55.727
102.110	55.727
102.140	55.727
102.170	55.728
102.200	55.728
102.230	55.728
102.261	55.728
102.291	55.728
102.321	55.728
102.351	55.728
102.381	55.728
102.411	55.728
102.442	55.728
102.472	55.729
102.502	55.728
102.532	55.728
102.562	55.729
102.593	55.729
102.623	55.729
102.653	55.729
102.683	55.729
102.713	55.729
102.743	55.729
102.774	55.727
102.804	55.728
102.834	55.728
102.864	55.728
102.894	55.728
102.925	55.729
102.955	55.729
102.985	55.730
103.015	55.730
103.045	55.730
103.075	55.730
103.106	55.731
103.136	55.731
103.166	55.731
103.196	55.731
103.226	55.731
103.256	55.731
103.287	55.731
103.317	55.731
103.347	55.731
103.377	55.731
103.407	55.731
103.438	55.732
103.468	55.732
103.498	55.731
103.528	55.732
103.558	55.732
103.588	55.732
103.619	55.733
103.649	55.733
103.679	55.733
103.709	55.734
103.739	55.734
103.770	55.734
103.800	55.734
103.830	55.734
103.860	55.734
103.890	55.734
103.920	55.734
103.951	55.734
103.981	55.735
104.011	55.735
104.041	55.735
104.071	55.734
104.102	55.735
104.132	55.735
104.162	55.735
104.192	55.735
104.222	55.735
104.252	55.735
104.283	55.735
104.313	55.735
104.343	55.736
104.373	55.735
104.403	55.736
104.433	55.737
104.464	55.737
104.494	55.738
104.524	55.738
104.554	55.739
104.584	55.740
104.615	55.740
104.645	55.741
104.675	55.741
104.705	55.741
104.735	55.741
104.765	55.741
104.796	55.741
104.826	55.742
104.856	55.741
104.886	55.742
104.916	55.742
104.947	55.743
104.977	55.743
105.007	55.744
105.037	55.745
105.067	55.746
105.097	55.746
105.128	55.746
105.158	55.746
105.188	55.746
105.218	55.747
105.248	55.746
105.279	55.746
105.309	55.746
105.339	55.746
105.369	55.746
105.399	55.746
105.430	55.746
105.460	55.746
105.490	55.747
105.520	55.747
105.550	55.747
105.581	55.747
105.611	55.748
105.641	55.749
105.671	55.749
105.701	55.750
105.732	55.749
105.762	55.750
105.792	55.750
105.822	55.750
105.852	55.750
105.882	55.750
105.913	55.750
105.943	55.750
105.973	55.750
106.003	55.750
106.033	55.750
106.064	55.750
106.094	55.750
106.124	55.750
106.154	55.750
106.184	55.750
106.215	55.750
106.245	55.750
106.275	55.750
106.305	55.751
106.335	55.751
106.365	55.751
106.396	55.751
106.426	55.751
106.456	55.751
106.486	55.751
106.516	55.751
106.547	55.752
106.577	55.752
106.607	55.752
106.637	55.751
106.667	55.751
106.698	55.751
106.728	55.751
106.758	55.751
106.788	55.751
106.818	55.751
106.848	55.752
106.879	55.752
106.909	55.752
106.939	55.752
106.969	55.752
106.999	55.752
107.030	55.752
107.060	55.752
107.090	55.752
107.120	55.753
107.150	55.753
107.181	55.753
107.211	55.753
107.241	55.753
107.271	55.753
107.301	55.753
107.331	55.754
107.362	55.754
107.392	55.754
107.422	55.754
107.452	55.754
107.482	55.754
107.513	55.754
107.543	55.754
107.573	55.754
107.603	55.754
107.633	55.754
107.664	55.754
107.694	55.755
107.724	55.755
107.754	55.755
107.784	55.755
107.815	55.755
107.845	55.755
107.875	55.755
107.905	55.755
107.935	55.755
107.966	55.755
107.996	55.755
108.026	55.755
108.056	55.755
108.086	55.755
108.116	55.755
108.147	55.755
108.177	55.755
108.207	55.755
108.237	55.755
108.267	55.755
108.298	55.755
108.328	55.755
108.358	55.759
108.388	55.759
108.418	55.759
108.448	55.758
108.479	55.758
108.509	55.758
108.539	55.759
108.569	55.760
108.599	55.760
108.630	55.761
108.660	55.761
108.690	55.761
108.720	55.761
108.750	55.761
108.781	55.761
108.811	55.760
108.841	55.760
108.871	55.760
108.901	55.761
108.932	55.763
108.962	55.763
108.992	55.764
109.022	55.766
109.052	55.766
109.082	55.766
109.113	55.766
109.143	55.766
109.173	55.766
109.203	55.766
109.233	55.766
109.264	55.766
109.294	55.766
109.324	55.766
109.354	55.766
109.384	55.766
109.414	55.766
109.445	55.766
109.475	55.766
109.505	55.766
109.535	55.766
109.565	55.766
109.596	55.767
109.626	55.766
109.656	55.767
109.686	55.767
109.716	55.767
109.747	55.766
109.777	55.766
109.807	55.766
109.837	55.766
109.867	55.766
109.897	55.766
109.928	55.767
109.958	55.767
109.988	55.766
110.018	55.766
110.048	55.765
110.079	55.764
110.109	55.764
110.139	55.763
110.169	55.760
110.199	55.756
110.230	55.331
110.260	55.332
110.290	55.333
110.320	55.333
110.350	55.334
110.380	55.334
110.411	55.334
110.441	55.334
110.471	55.335
110.501	55.335
110.531	55.335
110.562	55.335
110.592	55.336
110.622	55.336
110.652	55.336
110.682	55.337
110.712	55.337
110.743	55.337
110.773	55.337
110.803	55.337
110.833	55.337
110.863	55.337
110.893	55.337
110.924	55.338
110.954	55.338
110.984	55.338
111.014	55.338
111.044	55.338
111.075	55.338
111.105	55.339
111.135	55.339
111.165	55.339
111.195	55.339
111.225	55.339
111.256	55.340
111.286	55.340
111.316	55.340
111.346	55.340
111.376	55.340
111.407	55.340
111.437	55.341
111.467	55.341
111.497	55.341
111.527	55.341
111.557	55.341
111.588	55.342
111.618	55.342
111.648	55.342
111.678	55.342
111.708	55.342
111.738	55.342
111.769	55.342
111.799	55.343
111.829	55.343
111.859	55.343
111.889	55.343
111.920	55.343
111.950	55.344
111.980	55.345
112.010	55.345
112.040	55.345
112.070	55.345
112.101	55.348
112.131	55.349
112.161	55.349
112.191	55.350
112.221	55.350
112.251	55.350
112.282	55.350
112.312	55.351
112.342	55.351
112.372	55.351
112.402	55.353
112.433	55.354
112.463	55.354
112.493	55.355
112.523	55.355
112.553	55.355
112.584	55.355
112.614	55.356
112.644	55.356
112.674	55.357
112.704	55.358
112.734	55.358
112.765	55.358
112.795	55.358
112.825	55.360
112.855	55.361
112.885	55.361
112.916	55.362
112.946	55.362
112.976	55.362
113.006	55.362
113.036	55.362
113.067	55.363
113.097	55.363
113.127	55.363
113.157	55.363
113.187	55.363
113.217	55.363
113.248	55.363
113.278	55.363
113.308	55.364
113.338	55.364
113.368	55.364
113.399	55.364
113.429	55.364
113.459	55.364
113.489	55.364
113.519	55.364
113.550	55.365
113.580	55.365
113.610	55.365
113.640	55.365
113.670	55.365
113.700	55.365
113.731	55.365
113.761	55.365
113.791	55.365
113.821	55.365
113.851	55.365
113.882	55.365
113.912	55.366
113.942	55.366
113.972	55.366
114.002	55.366
114.033	55.366
114.063	55.367
114.093	55.367
114.123	55.368
114.153	55.368
114.184	55.368
114.214	55.368
114.244	55.368
114.274	55.368
114.304	55.368
114.335	55.368
114.365	55.368
114.395	55.368
114.425	55.368
114.455	55.368
114.485	55.368
114.516	55.368
114.546	55.368
114.576	55.368
114.606	55.368
114.636	55.368
114.667	55.369
114.697	55.369
114.727	55.369
114.757	55.369
114.787	55.369
114.818	55.369
114.848	55.369
114.878	55.369
114.908	55.369
114.938	55.369
114.968	55.369
114.999	55.369
115.029	55.369
115.059	55.369
115.089	55.369
115.119	55.369
115.150	55.369
115.180	55.369
115.210	55.369
115.240	55.369
115.270	55.369
115.300	55.369
115.331	55.370
115.361	55.370
115.391	55.370
115.421	55.370
115.451	55.369
115.482	55.370
115.512	55.370
115.542	55.370
115.572	55.370
115.602	55.370
115.633	55.371
115.663	55.370
115.693	55.371
115.723	55.371
115.753	55.371
115.783	55.371
115.814	55.371
115.844	55.371
115.874	55.371
115.904	55.371
115.934	55.371
115.965	55.371
115.995	55.371
116.025	55.371
116.055	55.371
116.085	55.372
116.116	55.372
116.146	55.372
116.176	55.372
116.206	55.372
116.236	55.372
116.267	55.372
116.297	55.372
116.327	55.372
116.357	55.373
116.387	55.372
116.417	55.372
116.448	55.373
116.478	55.373
116.508	55.373
116.538	55.373
116.568	55.373
116.599	55.373
116.629	55.373
116.659	55.373
116.689	55.373
116.719	55.374
116.750	55.374
116.780	55.374
116.810	55.374
116.840	55.375
116.870	55.375
116.901	55.375
116.931	55.376
116.961	55.376
116.991	55.376
117.021	55.379
117.051	55.381
117.082	55.381
117.112	55.381
117.142	55.383
117.172	55.383
117.202	55.383
117.233	55.383
117.263	55.384
117.293	55.384
117.323	55.384
117.353	55.384
117.384	55.384
117.414	55.384
117.444	55.384
117.474	55.384
117.504	55.385
117.534	55.386
117.565	55.387
117.595	55.387
117.625	55.387
117.655	55.387
117.685	55.387
117.716	55.387
117.746	55.387
117.776	55.388
117.806	55.388
117.836	55.388
117.867	55.388
117.897	55.388
117.927	55.388
117.957	55.389
117.987	55.389
118.017	55.390
118.048	55.390
118.078	55.390
118.108	55.390
118.138	55.391
118.168	55.391
118.199	55.391
118.229	55.392
118.259	55.392
118.289	55.392
118.319	55.392
118.350	55.392
118.380	55.392
118.410	55.392
118.440	55.392
118.470	55.392
118.501	55.393
118.531	55.392
118.561	55.393
118.591	55.393
118.621	55.393
118.652	55.393
118.682	55.393
118.712	55.393
118.742	55.394
118.772	55.394
118.802	55.395
118.833	55.395
118.863	55.395
118.893	55.395
118.923	55.395
118.953	55.395
118.984	55.395
119.014	55.396
119.044	55.396
119.074	55.396
119.104	55.396
119.135	55.396
119.165	55.396
119.195	55.397
119.225	55.397
119.255	55.398
119.285	55.398
119.316	55.398
119.346	55.398
119.376	55.398
119.406	55.398
119.436	55.398
119.467	55.398
119.497	55.398
119.527	55.398
119.557	55.398
119.587	55.399
119.618	55.399
119.648	55.399
119.678	55.399
119.708	55.400
119.738	55.400
119.769	55.400
119.799	55.400
119.829	55.400
119.859	55.400
119.889	55.400
119.919	55.400
119.950	55.401
119.980	55.405
120.010	55.405
120.040	55.405
120.070	55.406
120.101	55.406
120.131	55.406
120.161	55.407
120.191	55.406
120.221	55.407
120.252	55.407
120.282	55.407
120.312	55.406
120.342	55.406
120.372	55.407
120.402	55.408
120.433	55.408
120.463	55.408
120.493	55.408
120.523	55.408
120.553	55.408
120.584	55.408
120.614	55.409
120.644	55.409
120.674	55.410
120.704	55.410
120.734	55.410
120.765	55.410
120.795	55.410
120.825	55.410
120.855	55.410
120.885	55.410
120.916	55.411
120.946	55.411
120.976	55.411
121.006	55.413
121.036	55.413
121.066	55.413
121.097	55.413
121.127	55.413
121.157	55.413
121.187	55.413
121.217	55.413
121.247	55.413
121.278	55.414
121.308	55.414
121.338	55.414
121.368	55.414
121.398	55.415
121.428	55.415
121.459	55.415
121.489	55.416
121.519	55.416
121.549	55.416
121.579	55.415
121.610	55.416
121.640	55.416
121.670	55.416
121.700	55.416
121.730	55.416
121.760	55.416
121.791	55.416
121.821	55.416
121.851	55.417
121.881	55.417
121.911	55.417
121.942	55.417
121.972	55.417
122.002	55.417
122.032	55.418
122.062	55.418
122.092	55.418
122.123	55.418
122.153	55.418
122.183	55.419
122.213	55.418
122.243	55.419
122.273	55.419
122.304	55.419
122.334	55.419
122.364	55.420
122.394	55.420
122.424	55.420
122.455	55.420
122.485	55.420
122.515	55.420
122.545	55.420
122.575	55.420
122.605	55.421
122.636	55.421
122.666	55.421
122.696	55.421
122.726	55.421
122.756	55.421
122.786	55.421
122.817	55.421
122.847	55.421
122.877	55.422
122.907	55.422
122.937	55.422
122.968	55.422
122.998	55.422
123.028	55.422
123.058	55.423
123.088	55.423
123.118	55.423
123.149	55.423
123.179	55.423
123.209	55.423
123.239	55.423
123.269	55.423
123.300	55.424
123.330	55.425
123.360	55.426
123.390	55.426
123.420	55.426
123.450	55.426
123.481	55.427
123.511	55.427
123.541	55.427
123.571	55.427
123.601	55.427
123.632	55.427

