NW1 Channel 1 Rise @ 5V (EXP95)	
Time (s)	Current (mA)
0.025	48.274
0.055	48.282
0.085	48.296
0.115	48.300
0.145	48.312
0.175	48.326
0.205	48.342
0.236	48.352
0.266	48.359
0.296	48.360
0.326	48.360
0.356	48.362
0.387	48.366
0.417	48.379
0.447	48.391
0.477	48.403
0.507	48.410
0.538	48.418
0.568	48.430
0.598	48.437
0.628	48.439
0.658	48.444
0.688	48.471
0.719	48.513
0.749	48.520
0.779	48.518
0.809	48.516
0.839	48.521
0.870	48.521
0.900	48.524
0.930	48.520
0.960	48.528
0.990	48.538
1.021	48.538
1.051	48.540
1.081	48.555
1.111	48.553
1.141	48.550
1.172	48.554
1.202	48.567
1.232	48.567
1.262	48.571
1.292	48.581
1.323	48.589
1.353	48.590
1.383	48.588
1.413	48.590
1.443	48.591
1.473	48.593
1.504	48.590
1.534	48.597
1.564	48.597
1.594	48.605
1.624	48.610
1.655	48.607
1.685	48.608
1.715	48.621
1.745	48.622
1.775	48.619
1.806	48.627
1.836	48.627
1.866	48.625
1.896	48.624
1.926	48.624
1.956	48.624
1.987	48.621
2.017	48.620
2.047	48.616
2.077	48.615
2.107	48.614
2.138	48.624
2.168	48.631
2.198	48.631
2.228	48.635
2.258	48.641
2.289	48.646
2.319	48.645
2.349	48.649
2.379	48.647
2.409	48.648
2.439	48.647
2.470	48.646
2.500	48.645
2.530	48.643
2.560	48.641
2.590	48.643
2.621	48.641
2.651	48.638
2.681	48.634
2.711	48.639
2.741	48.640
2.772	48.640
2.802	48.639
2.832	48.646
2.862	48.649
2.892	48.647
2.922	48.648
2.953	48.650
2.983	48.655
3.013	48.652
3.043	48.664
3.073	48.668
3.104	48.672
3.134	48.673
3.164	48.675
3.194	48.676
3.224	48.678
3.254	48.687
3.285	48.686
3.315	48.685
3.345	48.684
3.375	48.683
3.405	48.681
3.436	48.681
3.466	48.681
3.496	48.680
3.526	48.684
3.556	48.685
3.587	48.689
3.617	48.690
3.647	48.690
3.677	48.689
3.707	48.690
3.738	48.688
3.768	48.688
3.798	48.692
3.828	48.694
3.858	48.694
3.889	48.697
3.919	48.698
3.949	48.704
3.979	48.704
4.009	48.704
4.039	48.705
4.070	48.708
4.100	48.707
4.130	48.706
4.160	48.704
4.190	48.703
4.221	48.711
4.251	48.716
4.281	48.722
4.311	48.725
4.341	48.724
4.372	48.726
4.402	48.729
4.432	48.727
4.462	48.725
4.492	48.726
4.523	48.732
4.553	48.734
4.583	48.737
4.613	48.736
4.643	48.735
4.674	48.730
4.704	48.734
4.734	48.737
4.764	48.744
4.794	48.744
4.825	48.744
4.855	48.745
4.885	48.748
4.915	48.746
4.945	48.744
4.976	48.742
5.006	48.757
5.036	48.757
5.066	48.759
5.096	48.758
5.127	48.758
5.157	48.755
5.187	48.753
5.217	48.762
5.247	48.770
5.277	48.769
5.308	48.771
5.338	48.769
5.368	48.770
5.398	48.775
5.428	48.774
5.459	48.775
5.489	48.774
5.519	48.777
5.549	48.775
5.579	48.775
5.609	48.775
5.640	48.775
5.670	48.781
5.700	48.782
5.730	48.787
5.760	48.788
5.791	48.790
5.821	48.796
5.851	48.798
5.881	48.799
5.911	48.805
5.942	48.807
5.972	48.809
6.002	48.808
6.032	48.806
6.062	48.806
6.092	48.807
6.123	48.811
6.153	48.816
6.183	48.824
6.213	48.824
6.243	48.826
6.274	48.824
6.304	48.823
6.334	48.821
6.364	48.820
6.394	48.818
6.424	48.817
6.455	48.815
6.485	48.813
6.515	48.811
6.545	48.809
6.575	48.807
6.606	48.807
6.636	48.809
6.666	48.810
6.696	48.815
6.726	48.817
6.757	48.815
6.787	48.815
6.817	48.813
6.847	48.813
6.877	48.812
6.907	48.813
6.938	48.811
6.968	48.810
6.998	48.808
7.028	48.807
7.058	48.810
7.089	48.811
7.119	48.812
7.149	48.812
7.179	48.811
7.209	48.811
7.240	48.812
7.270	48.812
7.300	48.816
7.330	48.815
7.360	48.819
7.390	48.819
7.421	48.819
7.451	48.822
7.481	48.824
7.511	48.826
7.541	48.832
7.572	48.833
7.602	48.835
7.632	48.838
7.662	48.840
7.692	48.840
7.722	48.839
7.753	48.839
7.783	48.838
7.813	48.838
7.843	48.837
7.873	48.839
7.904	48.842
7.934	48.842
7.964	48.840
7.994	48.840
8.024	48.843
8.055	48.846
8.085	48.853
8.115	48.855
8.145	48.855
8.175	48.855
8.205	48.854
8.236	48.852
8.266	48.850
8.296	48.849
8.326	48.848
8.356	48.847
8.387	48.845
8.417	48.845
8.447	48.847
8.477	48.847
8.507	48.846
8.538	48.845
8.568	48.844
8.598	48.844
8.628	48.845
8.658	48.844
8.688	48.843
8.719	48.843
8.749	48.845
8.779	48.845
8.809	48.845
8.839	48.851
8.870	48.851
8.900	48.851
8.930	48.850
8.960	48.850
8.990	48.849
9.020	48.847
9.051	48.847
9.081	48.846
9.111	48.845
9.141	48.844
9.171	48.843
9.202	48.843
9.232	48.846
9.262	48.851
9.292	48.852
9.322	48.853
9.353	48.852
9.383	48.851
9.413	48.854
9.443	48.854
9.473	48.854
9.503	48.852
9.534	48.851
9.564	48.850
9.594	48.849
9.624	48.849
9.654	48.849
9.685	48.848
9.715	48.847
9.745	48.847
9.775	48.849
9.805	48.849
9.836	48.854
9.866	48.861
9.896	48.866
9.926	48.867
9.956	48.867
9.987	48.873
10.017	48.874
10.047	48.873
10.077	48.873
10.107	48.874
10.137	48.877
10.168	48.877
10.198	48.877
10.228	48.876
10.258	48.875
10.288	48.874
10.319	48.876
10.349	48.876
10.379	48.875
10.409	48.875
10.439	48.874
10.469	48.876
10.500	48.877
10.530	48.879
10.560	48.880
10.590	48.885
10.620	48.885
10.651	48.886
10.681	48.886
10.711	48.887
10.741	48.886
10.771	48.884
10.802	48.884
10.832	48.883
10.862	48.883
10.892	48.884
10.922	48.885
10.953	48.884
10.983	48.884
11.013	48.885
11.043	48.885
11.073	48.884
11.104	48.885
11.134	48.886
11.164	48.886
11.194	48.884
11.224	48.884
11.255	48.884
11.285	48.883
11.315	48.883
11.345	48.883
11.375	48.883
11.405	48.883
11.436	48.882
11.466	48.882
11.496	48.882
11.526	48.882
11.556	48.881
11.587	48.882
11.617	48.883
11.647	48.883
11.677	48.883
11.707	48.887
11.738	48.887
11.768	48.887
11.798	48.887
11.828	48.887
11.858	48.886
11.888	48.887
11.919	48.889
11.949	48.887
11.979	48.886
12.009	48.884
12.039	48.884
12.070	48.883
12.100	48.883
12.130	48.892
12.160	48.900
12.190	48.900
12.221	48.903
12.251	48.905
12.281	48.904
12.311	48.904
12.341	48.903
12.372	48.904
12.402	48.904
12.432	48.905
12.462	48.907
12.492	48.906
12.523	48.905
12.553	48.904
12.583	48.904
12.613	48.905
12.643	48.911
12.674	48.922
12.704	48.927
12.734	48.927
12.764	48.926
12.794	48.926
12.825	48.925
12.855	48.924
12.885	48.923
12.915	48.922
12.945	48.924
12.976	48.924
13.006	48.922
13.036	48.922
13.066	48.921
13.096	48.920
13.127	48.920
13.157	48.921
13.187	48.919
13.217	48.918
13.247	48.917
13.278	48.916
13.308	48.916
13.338	48.915
13.368	48.919
13.398	48.918
13.429	48.918
13.459	48.922
13.489	48.921
13.519	48.920
13.549	48.919
13.580	48.918
13.610	48.919
13.640	48.918
13.670	48.917
13.700	48.921
13.731	48.920
13.761	48.919
13.791	48.917
13.821	48.916
13.851	48.915
13.882	48.917
13.912	48.920
13.942	48.925
13.972	48.925
14.002	48.924
14.033	48.926
14.063	48.927
14.093	48.926
14.123	48.926
14.153	48.928
14.184	48.927
14.214	48.927
14.244	48.927
14.274	48.925
14.304	48.924
14.334	48.926
14.365	48.927
14.395	48.926
14.425	48.926
14.455	48.927
14.485	48.929
14.516	48.931
14.546	48.930
14.576	48.929
14.606	48.928
14.636	48.927
14.667	48.927
14.697	48.928
14.727	48.927
14.757	48.927
14.787	48.926
14.818	48.925
14.848	48.926
14.878	48.929
14.908	48.931
14.938	48.929
14.969	48.928
14.999	48.928
15.029	48.927
15.059	48.926
15.089	48.928
15.120	48.928
15.150	48.929
15.180	48.932
15.210	48.942
15.240	48.942
15.271	48.941
15.301	48.940
15.331	48.940
15.361	48.939
15.391	48.939
15.422	48.944
15.452	48.944
15.482	48.943
15.512	48.944
15.542	48.944
15.572	48.943
15.603	48.943
15.633	48.942
15.663	48.941
15.693	48.941
15.723	48.941
15.754	48.940
15.784	48.940
15.814	48.939
15.844	48.939
15.874	48.938
15.905	48.937
15.935	48.936
15.965	48.935
15.995	48.935
16.025	48.939
16.056	48.942
16.086	48.942
16.116	48.941
16.146	48.944
16.176	48.944
16.207	48.944
16.237	48.943
16.267	48.943
16.297	48.942
16.327	48.946
16.358	48.947
16.388	48.949
16.418	48.948
16.448	48.948
16.478	48.949
16.508	48.948
16.539	48.948
16.569	48.948
16.599	48.948
16.629	48.952
16.659	48.952
16.690	48.951
16.720	48.952
16.750	48.954
16.780	48.953
16.810	48.953
16.841	48.953
16.871	48.954
16.901	48.953
16.931	48.952
16.961	48.952
16.991	48.956
17.022	48.956
17.052	48.956
17.082	48.956
17.112	48.957
17.142	48.958
17.173	48.957
17.203	48.957
17.233	48.957
17.263	48.959
17.293	48.959
17.323	48.959
17.354	48.961
17.384	48.961
17.414	48.960
17.444	48.960
17.474	48.959
17.505	48.964
17.535	48.965
17.565	48.964
17.595	48.963
17.625	48.964
17.656	48.964
17.686	48.963
17.716	48.965
17.746	48.965
17.776	48.963
17.806	48.963
17.837	48.965
17.867	48.964
17.897	48.964
17.927	48.964
17.957	48.963
17.988	48.964
18.018	48.965
18.048	48.965
18.078	48.965
18.108	48.964
18.139	48.964
18.169	48.965
18.199	48.964
18.229	48.963
18.259	48.963
18.289	48.962
18.320	48.962
18.350	48.962
18.380	48.962
18.410	48.961
18.440	48.960
18.471	48.959
18.501	48.958
18.531	48.959
18.561	48.962
18.591	48.963
18.622	48.965
18.652	48.973
18.682	48.974
18.712	48.973
18.742	48.974
18.772	48.974
18.803	48.973
18.833	48.973
18.863	48.972
18.893	48.972
18.923	48.971
18.954	48.970
18.984	48.969
19.014	48.968
19.044	48.966
19.074	48.967
19.104	48.966
19.135	48.965
19.165	48.965
19.195	48.966
19.225	48.965
19.255	48.965
19.286	48.966
19.316	48.967
19.346	48.967
19.376	48.967
19.406	48.967
19.437	48.966
19.467	48.965
19.497	48.965
19.527	48.964
19.557	48.964
19.587	48.967
19.618	48.968
19.648	48.968
19.678	48.968
19.708	48.966
19.738	48.967
19.769	48.966
19.799	48.966
19.829	48.969
19.859	48.969
19.889	48.970
19.920	48.971
19.950	48.970
19.980	48.970
20.010	48.969
20.040	48.970
20.070	48.969
20.101	48.968
20.131	48.967
20.161	48.967
20.191	48.964
20.221	48.969
20.252	48.971
20.282	48.970
20.312	48.970
20.342	48.970
20.372	48.972
20.403	48.981
20.433	48.987
20.463	48.986
20.493	48.985
20.523	48.991
20.553	48.991
20.584	48.992
20.614	48.991
20.644	48.991
20.674	48.990
20.704	48.993
20.735	48.994
20.765	48.996
20.795	48.997
20.825	48.998
20.855	49.004
20.886	49.004
20.916	49.004
20.946	49.006
20.976	49.008
21.006	49.008
21.036	49.008
21.067	49.008
21.097	49.009
21.127	49.011
21.157	49.012
21.187	49.014
21.218	49.017
21.248	49.019
21.278	49.023
21.308	49.025
21.338	49.025
21.369	49.026
21.399	49.026
21.429	49.027
21.459	49.027
21.489	49.028
21.519	49.028
21.550	49.027
21.580	49.029
21.610	49.029
21.640	49.031
21.670	49.038
21.701	49.038
21.731	49.038
21.761	49.038
21.791	49.038
21.821	49.038
21.852	49.039
21.882	49.039
21.912	49.039
21.942	49.039
21.972	49.041
22.002	49.045
22.033	49.045
22.063	49.044
22.093	49.043
22.123	49.050
22.153	49.051
22.184	49.051
22.214	49.051
22.244	49.051
22.274	49.051
22.304	49.051
22.335	49.050
22.365	49.050
22.395	49.051
22.425	49.051
22.455	49.051
22.485	49.051
22.516	49.052
22.546	49.052
22.576	49.055
22.606	49.054
22.636	49.054
22.667	49.053
22.697	49.052
22.727	49.050
22.757	49.052
22.787	49.052
22.818	49.051
22.848	49.052
22.878	49.052
22.908	49.052
22.938	49.052
22.968	49.052
22.999	49.053
23.029	49.054
23.059	49.054
23.089	49.054
23.119	49.053
23.150	49.053
23.180	49.053
23.210	49.054
23.240	49.055
23.270	49.057
23.300	49.061
23.331	49.062
23.361	49.062
23.391	49.066
23.421	49.069
23.451	49.069
23.482	49.069
23.512	49.068
23.542	49.068
23.572	49.067
23.602	49.067
23.632	49.070
23.663	49.069
23.693	49.068
23.723	49.068
23.753	49.068
23.783	49.068
23.814	49.067
23.844	49.067
23.874	49.067
23.904	49.067
23.934	49.067
23.965	49.066
23.995	49.066
24.025	49.066
24.055	49.065
24.085	49.066
24.115	49.066
24.146	49.066
24.176	49.066
24.206	49.066
24.236	49.069
24.266	49.069
24.297	49.068
24.327	49.068
24.357	49.068
24.387	49.067
24.417	49.066
24.447	49.070
24.478	49.069
24.508	49.071
24.538	49.072
24.568	49.071
24.598	49.071
24.629	49.071
24.659	49.072
24.689	49.073
24.719	49.076
24.749	49.081
24.780	49.081
24.810	49.080
24.840	49.080
24.870	49.085
24.900	49.086
24.931	49.086
24.961	49.085
24.991	49.085
25.021	49.084
25.051	49.084
25.082	49.084
25.112	49.087
25.142	49.087
25.172	49.086
25.202	49.082
25.232	49.082
25.263	49.082
25.293	49.083
25.323	49.090
25.353	49.094
25.383	49.093
25.414	49.093
25.444	49.093
25.474	49.093
25.504	49.092
25.534	49.093
25.565	49.093
25.595	49.093
25.625	49.092
25.655	49.092
25.685	49.092
25.716	49.092
25.746	49.092
25.776	49.092
25.806	49.093
25.836	49.093
25.867	49.093
25.897	49.093
25.927	49.092
25.957	49.092
25.987	49.092
26.018	49.095
26.048	49.098
26.078	49.101
26.108	49.102
26.138	49.103
26.169	49.103
26.199	49.104
26.229	49.106
26.259	49.109
26.289	49.109
26.320	49.111
26.350	49.111
26.380	49.110
26.410	49.110
26.440	49.112
26.471	49.113
26.501	49.115
26.531	49.120
26.561	49.120
26.591	49.120
26.622	49.119
26.652	49.119
26.682	49.119
26.712	49.119
26.742	49.118
26.773	49.118
26.803	49.118
26.833	49.118
26.863	49.117
26.893	49.117
26.924	49.119
26.954	49.119
26.984	49.118
27.014	49.118
27.044	49.118
27.074	49.118
27.105	49.118
27.135	49.117
27.165	49.117
27.195	49.117
27.225	49.117
27.256	49.117
27.286	49.117
27.316	49.117
27.346	49.116
27.376	49.116
27.407	49.115
27.437	49.116
27.467	49.116
27.497	49.115
27.527	49.115
27.558	49.115
27.588	49.115
27.618	49.114
27.648	49.114
27.678	49.114
27.709	49.113
27.739	49.113
27.769	49.113
27.799	49.112
27.829	49.112
27.860	49.112
27.890	49.112
27.920	49.113
27.950	49.113
27.980	49.113
28.011	49.113
28.041	49.113
28.071	49.113
28.101	49.113
28.131	49.113
28.162	49.113
28.192	49.114
28.222	49.114
28.252	49.113
28.282	49.113
28.313	49.113
28.343	49.113
28.373	49.113
28.403	49.113
28.433	49.113
28.464	49.114
28.494	49.114
28.524	49.114
28.554	49.114
28.584	49.113
28.615	49.113
28.645	49.113
28.675	49.112
28.705	49.114
28.735	49.113
28.766	49.113
28.796	49.114
28.826	49.114
28.856	49.113
28.886	49.113
28.916	49.113
28.947	49.113
28.977	49.116
29.007	49.116
29.037	49.116
29.067	49.115
29.098	49.115
29.128	49.114
29.158	49.114
29.188	49.113
29.218	49.113
29.249	49.113
29.279	49.112
29.309	49.112
29.339	49.112
29.369	49.112
29.400	49.112
29.430	49.112
29.460	49.116
29.490	49.116
29.520	49.116
29.551	49.116
29.581	49.116
29.611	49.115
29.641	49.115
29.671	49.115
29.702	49.114
29.732	49.115
29.762	49.115
29.792	49.115
29.822	49.116
29.853	49.116
29.883	49.116
29.913	49.117
29.943	49.118
29.973	49.118
30.004	49.118
30.034	49.118
30.064	49.118
30.094	49.118
30.124	49.120
30.155	49.120
30.185	49.120
30.215	49.120
30.245	49.120
30.275	49.119
30.306	49.119
30.336	49.119
30.366	49.120
30.396	49.120
30.426	49.119
30.457	49.119
30.487	49.119
30.517	49.119
30.547	49.118
30.577	49.118
30.608	49.118
30.638	49.118
30.668	49.119
30.698	49.118
30.728	49.118
30.759	49.119
30.789	49.119
30.819	49.119
30.849	49.118
30.879	49.118
30.910	49.118
30.940	49.119
30.970	49.119
31.000	49.121
31.030	49.124
31.061	49.126
31.091	49.134
31.121	49.134
31.151	49.134
31.181	49.134
31.212	49.134
31.242	49.133
31.272	49.133
31.302	49.132
31.332	49.132
31.363	49.131
31.393	49.131
31.423	49.131
31.453	49.132
31.483	49.133
31.513	49.135
31.544	49.135
31.574	49.139
31.604	49.139
31.634	49.138
31.664	49.138
31.695	49.138
31.725	49.138
31.755	49.138
31.785	49.138
31.815	49.138
31.846	49.138
31.876	49.138
31.906	49.138
31.936	49.138
31.966	49.138
31.997	49.138
32.027	49.138
32.057	49.137
32.087	49.137
32.117	49.137
32.148	49.137
32.178	49.137
32.208	49.137
32.238	49.137
32.268	49.143
32.299	49.144
32.329	49.144
32.359	49.144
32.389	49.144
32.419	49.145
32.449	49.146
32.480	49.146
32.510	49.146
32.540	49.147
32.570	49.148
32.600	49.148
32.631	49.148
32.661	49.148
32.691	49.148
32.721	49.151
32.751	49.151
32.782	49.150
32.812	49.150
32.842	49.150
32.872	49.150
32.902	49.149
32.932	49.149
32.963	49.150
32.993	49.149
33.023	49.149
33.053	49.149
33.083	49.149
33.114	49.149
33.144	49.149
33.174	49.149
33.204	49.149
33.234	49.150
33.265	49.149
33.295	49.149
33.325	49.149
33.355	49.149
33.385	49.155
33.416	49.159
33.446	49.158
33.476	49.159
33.506	49.159
33.536	49.159
33.567	49.158
33.597	49.158
33.627	49.158
33.657	49.158
33.687	49.158
33.717	49.157
33.748	49.157
33.778	49.156
33.808	49.156
33.838	49.156
33.868	49.156
33.899	49.156
33.929	49.157
33.959	49.157
33.989	49.157
34.019	49.158
34.049	49.158
34.080	49.158
34.110	49.158
34.140	49.158
34.170	49.158
34.200	49.158
34.231	49.158
34.261	49.158
34.291	49.158
34.321	49.158
34.351	49.158
34.382	49.158
34.412	49.158
34.442	49.158
34.472	49.158
34.502	49.158
34.532	49.157
34.563	49.157
34.593	49.157
34.623	49.157
34.653	49.156
34.683	49.156
34.714	49.156
34.744	49.156
34.774	49.157
34.804	49.157
34.834	49.157
34.865	49.157
34.895	49.157
34.925	49.157
34.955	49.157
34.985	49.159
35.015	49.158
35.046	49.158
35.076	49.158
35.106	49.157
35.136	49.157
35.166	49.157
35.197	49.156
35.227	49.156
35.257	49.156
35.287	49.156
35.317	49.156
35.348	49.156
35.378	49.155
35.408	49.155
35.438	49.160
35.468	49.160
35.498	49.162
35.529	49.164
35.559	49.165
35.589	49.165
35.619	49.169
35.649	49.169
35.680	49.168
35.710	49.168
35.740	49.168
35.770	49.168
35.800	49.168
35.831	49.167
35.861	49.167
35.891	49.167
35.921	49.167
35.951	49.167
35.981	49.167
36.012	49.167
36.042	49.166
36.072	49.166
36.102	49.166
36.132	49.166
36.163	49.166
36.193	49.166
36.223	49.166
36.253	49.166
36.283	49.166
36.313	49.166
36.344	49.167
36.374	49.167
36.404	49.166
36.434	49.166
36.464	49.165
36.495	49.165
36.525	49.164
36.555	49.164
36.585	49.164
36.615	49.165
36.646	49.165
36.676	49.165
36.706	49.165
36.736	49.165
36.766	49.164
36.796	49.163
36.827	49.160
36.857	49.159
36.887	49.159
36.917	49.159
36.947	49.159
36.978	49.158
37.008	49.159
37.038	49.161
37.068	49.162
37.098	49.162
37.129	49.163
37.159	49.163
37.189	49.163
37.219	49.162
37.249	49.162
37.279	49.162
37.310	49.162
37.340	49.161
37.370	49.161
37.400	49.162
37.430	49.162
37.461	49.162
37.491	49.162
37.521	49.162
37.551	49.161
37.581	49.161
37.611	49.161
37.642	49.161
37.672	49.161
37.702	49.160
37.732	49.160
37.762	49.159
37.793	49.159
37.823	49.159
37.853	49.159
37.883	49.160
37.913	49.163
37.944	49.164
37.974	49.170
38.004	49.171
38.034	49.171
38.064	49.171
38.095	49.172
38.125	49.172
38.155	49.171
38.185	49.171
38.215	49.172
38.245	49.171
38.276	49.171
38.306	49.171
38.336	49.171
38.366	49.173
38.396	49.173
38.427	49.173
38.457	49.173
38.487	49.173
38.517	49.173
38.547	49.173
38.578	49.173
38.608	49.173
38.638	49.173
38.668	49.174
38.698	49.175
38.728	49.175
38.759	49.175
38.789	49.175
38.819	49.175
38.849	49.177
38.879	49.177
38.910	49.179
38.940	49.179
38.970	49.179
39.000	49.180
39.030	49.181
39.060	49.181
39.091	49.181
39.121	49.181
39.151	49.181
39.181	49.181
39.211	49.181
39.242	49.181
39.272	49.181
39.302	49.181
39.332	49.181
39.362	49.181
39.393	49.181
39.423	49.182
39.453	49.182
39.483	49.182
39.513	49.182
39.543	49.184
39.574	49.184
39.604	49.185
39.634	49.185
39.664	49.184
39.694	49.184
39.725	49.184
39.755	49.184
39.785	49.184
39.815	49.183
39.845	49.183
39.876	49.182
39.906	49.181
39.936	49.184
39.966	49.187
39.996	49.187
40.026	49.190
40.057	49.190
40.087	49.189
40.117	49.189
40.147	49.189
40.177	49.189
40.208	49.189
40.238	49.189
40.268	49.189
40.298	49.189
40.328	49.189
40.359	49.190
40.389	49.191
40.419	49.194
40.449	49.195
40.479	49.196
40.509	49.196
40.540	49.196
40.570	49.197
40.600	49.198
40.630	49.198
40.660	49.198
40.691	49.198
40.721	49.197
40.751	49.198
40.781	49.198
40.811	49.198
40.842	49.199
40.872	49.199
40.902	49.199
40.932	49.199
40.962	49.199
40.992	49.199
41.023	49.200
41.053	49.200
41.083	49.200
41.113	49.200
41.143	49.200
41.174	49.199
41.204	49.199
41.234	49.199
41.264	49.199
41.294	49.198
41.325	49.198
41.355	49.199
41.385	49.199
41.415	49.199
41.445	49.199
41.475	49.199
41.506	49.199
41.536	49.199
41.566	49.199
41.596	49.199
41.626	49.199
41.657	49.199
41.687	49.199
41.717	49.199
41.747	49.199
41.777	49.199
41.808	49.199
41.838	49.201
41.868	49.204
41.898	49.203
41.928	49.204
41.958	49.204
41.989	49.205
42.019	49.205
42.049	49.205
42.079	49.205
42.109	49.205
42.140	49.205
42.170	49.207
42.200	49.207
42.230	49.207
42.260	49.207
42.290	49.207
42.321	49.206
42.351	49.206
42.381	49.206
42.411	49.206
42.441	49.206
42.472	49.206
42.502	49.206
42.532	49.206
42.562	49.206
42.592	49.205
42.623	49.205
42.653	49.205
42.683	49.204
42.713	49.204
42.743	49.204
42.773	49.203
42.804	49.203
42.834	49.203
42.864	49.204
42.894	49.206
42.924	49.205
42.955	49.207
42.985	49.206
43.015	49.206
43.045	49.207
43.075	49.207
43.105	49.207
43.136	49.208
43.166	49.208
43.196	49.207
43.226	49.207
43.256	49.211
43.287	49.211
43.317	49.211
43.347	49.210
43.377	49.210
43.407	49.210
43.438	49.211
43.468	49.212
43.498	49.211
43.528	49.211
43.558	49.210
43.589	49.214
43.619	49.214
43.649	49.213
43.679	49.213
43.709	49.214
43.739	49.215
43.770	49.215
43.800	49.215
43.830	49.215
43.860	49.215
43.890	49.215
43.921	49.214
43.951	49.214
43.981	49.214
44.011	49.214
44.041	49.215
44.071	49.215
44.102	49.216
44.132	49.220
44.162	49.221
44.192	49.220
44.222	49.220
44.253	49.223
44.283	49.223
44.313	49.223
44.343	49.224
44.373	49.226
44.404	49.231
44.434	49.231
44.464	49.231
44.494	49.232
44.524	49.232
44.554	49.232
44.585	49.233
44.615	49.234
44.645	49.234
44.675	49.235
44.705	49.235
44.736	49.234
44.766	49.235
44.796	49.235
44.826	49.236
44.856	49.242
44.886	49.242
44.917	49.242
44.947	49.243
44.977	49.243
45.007	49.242
45.037	49.243
45.068	49.243
45.098	49.243
45.128	49.246
45.158	49.246
45.188	49.249
45.219	49.253
45.249	49.254
45.279	49.254
45.309	49.254
45.339	49.254
45.369	49.254
45.400	49.254
45.430	49.254
45.460	49.255
45.490	49.255
45.520	49.255
45.551	49.255
45.581	49.254
45.611	49.254
45.641	49.254
45.671	49.254
45.701	49.254
45.732	49.254
45.762	49.254
45.792	49.254
45.822	49.254
45.852	49.253
45.883	49.253
45.913	49.254
45.943	49.254
45.973	49.254
46.003	49.254
46.034	49.256
46.064	49.256
46.094	49.256
46.124	49.256
46.154	49.255
46.184	49.255
46.215	49.255
46.245	49.255
46.275	49.255
46.305	49.255
46.335	49.254
46.366	49.253
46.396	49.253
46.426	49.253
46.456	49.252
46.486	49.252
46.516	49.252
46.547	49.251
46.577	49.252
46.607	49.252
46.637	49.251
46.667	49.252
46.698	49.251
46.728	49.251
46.758	49.251
46.788	49.251
46.818	49.251
46.849	49.251
46.879	49.252
46.909	49.253
46.939	49.253
46.969	49.254
47.000	49.254
47.030	49.253
47.060	49.253
47.090	49.253
47.120	49.253
47.150	49.253
47.181	49.253
47.211	49.253
47.241	49.253
47.271	49.252
47.301	49.252
47.332	49.252
47.362	49.252
47.392	49.252
47.422	49.252
47.452	49.252
47.483	49.252
47.513	49.252
47.543	49.252
47.573	49.252
47.603	49.251
47.633	49.251
47.664	49.251
47.694	49.251
47.724	49.251
47.754	49.251
47.784	49.251
47.815	49.252
47.845	49.252
47.875	49.252
47.905	49.254
47.935	49.260
47.966	49.262
47.996	49.262
48.026	49.262
48.056	49.262
48.086	49.263
48.116	49.263
48.147	49.264
48.177	49.266
48.207	49.266
48.237	49.266
48.267	49.266
48.298	49.266
48.328	49.266
48.358	49.266
48.388	49.266
48.418	49.266
48.449	49.266
48.479	49.266
48.509	49.266
48.539	49.265
48.569	49.266
48.600	49.265
48.630	49.265
48.660	49.266
48.690	49.266
48.720	49.265
48.750	49.265
48.781	49.265
48.811	49.265
48.841	49.265
48.871	49.265
48.901	49.264
48.932	49.265
48.962	49.266
48.992	49.266
49.022	49.266
49.052	49.269
49.082	49.269
49.113	49.269
49.143	49.269
49.173	49.269
49.203	49.269
49.233	49.269
49.264	49.270
49.294	49.270
49.324	49.270
49.354	49.269
49.384	49.270
49.414	49.271
49.445	49.270
49.475	49.271
49.505	49.271
49.535	49.271
49.565	49.271
49.596	49.271
49.626	49.271
49.656	49.281
49.686	49.282
49.716	49.283
49.747	49.283
49.777	49.282
49.807	49.286
49.837	49.286
49.867	49.287
49.898	49.285
49.928	49.287
49.958	49.286
49.988	49.286
50.018	49.285
50.048	49.287
50.079	49.288
50.109	49.287
50.139	49.286
50.169	49.287
50.200	49.288
50.230	49.288
50.260	49.288
50.290	49.289
50.320	49.288
50.351	49.288
50.381	49.287
50.411	49.288
50.441	49.289
50.471	49.291
50.501	49.291
50.532	49.291
50.562	49.291
50.592	49.291
50.622	49.290
50.652	49.292
50.683	49.292
50.713	49.292
50.743	49.292
50.773	49.293
50.803	49.293
50.834	49.293
50.864	49.293
50.894	49.293
50.924	49.292
50.954	49.292
50.985	49.295
51.015	49.295
51.045	49.297
51.075	49.298
51.105	49.298
51.136	49.298
51.166	49.298
51.196	49.298
51.226	49.298
51.257	49.297
51.287	49.297
51.317	49.297
51.347	49.298
51.377	49.298
51.408	49.298
51.438	49.298
51.468	49.298
51.498	49.298
51.528	49.298
51.559	49.299
51.589	49.300
51.619	49.299
51.649	49.299
51.679	49.299
51.710	49.299
51.740	49.299
51.770	49.299
51.800	49.299
51.830	49.299
51.861	49.299
51.891	49.298
51.921	49.298
51.951	49.298
51.981	49.298
52.011	49.298
52.042	49.297
52.072	49.297
52.102	49.297
52.132	49.297
52.162	49.297
52.193	49.296
52.223	49.297
52.253	49.296
52.283	49.297
52.313	49.301
52.344	49.301
52.374	49.303
52.404	49.303
52.434	49.303
52.464	49.303
52.495	49.303
52.525	49.303
52.555	49.303
52.585	49.303
52.615	49.303
52.646	49.303
52.676	49.303
52.706	49.304
52.736	49.304
52.766	49.304
52.797	49.304
52.827	49.305
52.857	49.306
52.887	49.306
52.917	49.306
52.948	49.306
52.978	49.306
53.008	49.307
53.038	49.309
53.068	49.310
53.099	49.311
53.129	49.312
53.159	49.312
53.189	49.312
53.219	49.312
53.250	49.312
53.280	49.312
53.310	49.313
53.340	49.313
53.370	49.313
53.401	49.313
53.431	49.313
53.461	49.313
53.491	49.312
53.521	49.312
53.552	49.312
53.582	49.312
53.612	49.312
53.642	49.312
53.672	49.312
53.703	49.313
53.733	49.315
53.763	49.315
53.793	49.316
53.823	49.317
53.854	49.317
53.884	49.317
53.914	49.317
53.944	49.317
53.974	49.317
54.004	49.317
54.035	49.317
54.065	49.317
54.095	49.318
54.125	49.318
54.155	49.318
54.186	49.318
54.216	49.318
54.246	49.318
54.276	49.318
54.307	49.318
54.337	49.318
54.367	49.318
54.397	49.318
54.427	49.318
54.457	49.321
54.488	49.323
54.518	49.324
54.548	49.324
54.578	49.324
54.608	49.324
54.639	49.325
54.669	49.326
54.699	49.327
54.729	49.327
54.759	49.327
54.790	49.327
54.820	49.326
54.850	49.327
54.880	49.329
54.910	49.329
54.941	49.329
54.971	49.329
55.001	49.330
55.031	49.330
55.061	49.330
55.092	49.330
55.122	49.330
55.152	49.335
55.182	49.335
55.212	49.338
55.243	49.338
55.273	49.339
55.303	49.341
55.333	49.342
55.363	49.342
55.393	49.342
55.424	49.342
55.454	49.343
55.484	49.343
55.514	49.344
55.544	49.345
55.575	49.345
55.605	49.345
55.635	49.345
55.665	49.345
55.695	49.345
55.726	49.345
55.756	49.345
55.786	49.345
55.816	49.345
55.846	49.346
55.877	49.346
55.907	49.346
55.937	49.346
55.967	49.348
55.997	49.350
56.027	49.351
56.058	49.351
56.088	49.351
56.118	49.351
56.148	49.351
56.178	49.351
56.209	49.350
56.239	49.351
56.269	49.350
56.299	49.350
56.329	49.350
56.359	49.350
56.390	49.350
56.420	49.350
56.450	49.350
56.480	49.350
56.510	49.350
56.541	49.350
56.571	49.350
56.601	49.350
56.631	49.350
56.661	49.350
56.692	49.350
56.722	49.350
56.752	49.350
56.782	49.350
56.812	49.350
56.842	49.350
56.873	49.350
56.903	49.350
56.933	49.350
56.963	49.349
56.993	49.350
57.024	49.350
57.054	49.350
57.084	49.350
57.114	49.350
57.144	49.349
57.175	49.350
57.205	49.351
57.235	49.353
57.265	49.353
57.295	49.353
57.325	49.353
57.356	49.353
57.386	49.354
57.416	49.354
57.446	49.355
57.476	49.355
57.507	49.356
57.537	49.356
57.567	49.356
57.597	49.356
57.627	49.356
57.658	49.356
57.688	49.356
57.718	49.356
57.748	49.357
57.778	49.357
57.808	49.357
57.839	49.357
57.869	49.357
57.899	49.356
57.929	49.357
57.959	49.356
57.990	49.357
58.020	49.357
58.050	49.357
58.080	49.356
58.110	49.356
58.140	49.356
58.171	49.357
58.201	49.356
58.231	49.356
58.261	49.356
58.291	49.356
58.322	49.356
58.352	49.356
58.382	49.356
58.412	49.356
58.442	49.356
58.473	49.356
58.503	49.356
58.533	49.356
58.563	49.356
58.593	49.356
58.623	49.357
58.654	49.357
58.684	49.357
58.714	49.357
58.744	49.357
58.774	49.357
58.805	49.357
58.835	49.357
58.865	49.357
58.895	49.357
58.925	49.359
58.956	49.360
58.986	49.360
59.016	49.360
59.046	49.360
59.076	49.360
59.107	49.360
59.137	49.360
59.167	49.360
59.197	49.360
59.227	49.360
59.257	49.362
59.288	49.363
59.318	49.363
59.348	49.363
59.378	49.363
59.408	49.363
59.439	49.363
59.469	49.363
59.499	49.363
59.529	49.363
59.559	49.363
59.589	49.363
59.620	49.363
59.650	49.363
59.680	49.363
59.710	49.364
59.740	49.366
59.771	49.366
59.801	49.366
59.831	49.366
59.861	49.366
59.891	49.367
59.921	49.367
59.952	49.366
59.982	49.366
60.012	49.366
60.042	49.366
60.072	49.367
60.103	49.367
60.133	49.367
60.163	49.367
60.193	49.367
60.223	49.367
60.254	49.367
60.284	49.367
60.314	49.367
60.344	49.367
60.374	49.367
60.405	49.368
60.435	49.369
60.465	49.369
60.495	49.368
60.525	49.368
60.555	49.369
60.586	49.369
60.616	49.368
60.646	49.369
60.676	49.369
60.706	49.369
60.737	49.370
60.767	49.370
60.797	49.370
60.827	49.370
60.857	49.371
60.888	49.371
60.918	49.372
60.948	49.372
60.978	49.372
61.008	49.374
61.039	49.374
61.069	49.375
61.099	49.376
61.129	49.376
61.159	49.376
61.189	49.376
61.220	49.377
61.250	49.376
61.280	49.377
61.310	49.379
61.340	49.380
61.371	49.380
61.401	49.380
61.431	49.380
61.461	49.381
61.491	49.381
61.522	49.381
61.552	49.383
61.582	49.384
61.612	49.385
61.642	49.386
61.672	49.386
61.703	49.386
61.733	49.386
61.763	49.386
61.793	49.386
61.823	49.386
61.854	49.386
61.884	49.386
61.914	49.386
61.944	49.386
61.974	49.386
62.005	49.386
62.035	49.386
62.065	49.386
62.095	49.386
62.125	49.387
62.156	49.386
62.186	49.386
62.216	49.387
62.246	49.386
62.276	49.386
62.306	49.386
62.337	49.386
62.367	49.386
62.397	49.386
62.427	49.386
62.457	49.388
62.488	49.388
62.518	49.388
62.548	49.388
62.578	49.389
62.608	49.389
62.638	49.389
62.669	49.389
62.699	49.389
62.729	49.389
62.759	49.389
62.789	49.389
62.820	49.389
62.850	49.389
62.880	49.390
62.910	49.390
62.940	49.390
62.971	49.390
63.001	49.390
63.031	49.390
63.061	49.390
63.091	49.389
63.121	49.389
63.152	49.390
63.182	49.390
63.212	49.390
63.242	49.391
63.272	49.391
63.303	49.391
63.333	49.391
63.363	49.391
63.393	49.392
63.423	49.392
63.454	49.392
63.484	49.393
63.514	49.393
63.544	49.393
63.574	49.392
63.604	49.393
63.635	49.393
63.665	49.392
63.695	49.393
63.725	49.393
63.755	49.393
63.786	49.393
63.816	49.393
63.846	49.392
63.876	49.392
63.906	49.392
63.937	49.392
63.967	49.393
63.997	49.392
64.027	49.393
64.057	49.393
64.087	49.393
64.118	49.393
64.148	49.393
64.178	49.393
64.208	49.393
64.238	49.393
64.269	49.393
64.299	49.393
64.329	49.394
64.359	49.394
64.389	49.394
64.419	49.395
64.450	49.395
64.480	49.395
64.510	49.395
64.540	49.395
64.570	49.395
64.601	49.395
64.631	49.395
64.661	49.396
64.691	49.396
64.721	49.396
64.752	49.396
64.782	49.396
64.812	49.397
64.842	49.397
64.872	49.396
64.902	49.398
64.933	49.399
64.963	49.399
64.993	49.399
65.023	49.399
65.053	49.399
65.084	49.399
65.114	49.399
65.144	49.399
65.174	49.399
65.204	49.400
65.234	49.400
65.265	49.399
65.295	49.399
65.325	49.399
65.355	49.399
65.385	49.400
65.416	49.399
65.446	49.401
65.476	49.401
65.506	49.402
65.536	49.402
65.567	49.402
65.597	49.402
65.627	49.401
65.657	49.402
65.687	49.401
65.717	49.402
65.748	49.401
65.778	49.401
65.808	49.401
65.838	49.401
65.868	49.402
65.899	49.401
65.929	49.401
65.959	49.401
65.989	49.402
66.019	49.402
66.049	49.402
66.080	49.402
66.110	49.402
66.140	49.402
66.170	49.402
66.200	49.402
66.231	49.402
66.261	49.401
66.291	49.401
66.321	49.401
66.351	49.401
66.382	49.401
66.412	49.401
66.442	49.402
66.472	49.401
66.502	49.401
66.532	49.401
66.563	49.401
66.593	49.401
66.623	49.401
66.653	49.400
66.683	49.401
66.714	49.400
66.744	49.401
66.774	49.400
66.804	49.400
66.834	49.399
66.865	49.399
66.895	49.399
66.925	49.401
66.955	49.401
66.985	49.400
67.015	49.400
67.046	49.400
67.076	49.400
67.106	49.399
67.136	49.398
67.166	49.397
67.197	49.399
67.227	49.400
67.257	49.400
67.287	49.400
67.317	49.404
67.348	49.404
67.378	49.404
67.408	49.403
67.438	49.405
67.468	49.406
67.498	49.406
67.529	49.406
67.559	49.408
67.589	49.408
67.619	49.408
67.649	49.408
67.680	49.408
67.710	49.408
67.740	49.410
67.770	49.410
67.800	49.412
67.831	49.412
67.861	49.412
67.891	49.412
67.921	49.412
67.951	49.412
67.981	49.412
68.012	49.412
68.042	49.412
68.072	49.412
68.102	49.412
68.132	49.412
68.163	49.412
68.193	49.412
68.223	49.412
68.253	49.412
68.283	49.412
68.314	49.412
68.344	49.413
68.374	49.413
68.404	49.413
68.434	49.413
68.464	49.413
68.495	49.413
68.525	49.413
68.555	49.413
68.585	49.413
68.615	49.413
68.646	49.414
68.676	49.418
68.706	49.418
68.736	49.418
68.766	49.418
68.797	49.419
68.827	49.419
68.857	49.419
68.887	49.420
68.917	49.420
68.947	49.420
68.978	49.420
69.008	49.421
69.038	49.421
69.068	49.421
69.098	49.421
69.129	49.421
69.159	49.422
69.189	49.422
69.219	49.422
69.249	49.422
69.280	49.423
69.310	49.423
69.340	49.423
69.370	49.422
69.400	49.423
69.430	49.425
69.461	49.425
69.491	49.425
69.521	49.425
69.551	49.425
69.581	49.425
69.612	49.425
69.642	49.425
69.672	49.426
69.702	49.426
69.732	49.426
69.763	49.427
69.793	49.430
69.823	49.431
69.853	49.431
69.883	49.431
69.913	49.431
69.944	49.432
69.974	49.432
70.004	49.432
70.034	49.433
70.064	49.433
70.095	49.433
70.125	49.433
70.155	49.433
70.185	49.433
70.215	49.434
70.246	49.434
70.276	49.434
70.306	49.435
70.336	49.435
70.366	49.435
70.396	49.435
70.427	49.435
70.457	49.435
70.487	49.435
70.517	49.435
70.547	49.435
70.578	49.435
70.608	49.435
70.638	49.435
70.668	49.435
70.698	49.437
70.728	49.437
70.759	49.437
70.789	49.438
70.819	49.437
70.849	49.437
70.879	49.437
70.910	49.437
70.940	49.437
70.970	49.438
71.000	49.438
71.030	49.438
71.061	49.438
71.091	49.438
71.121	49.439
71.151	49.439
71.181	49.439
71.211	49.439
71.242	49.439
71.272	49.439
71.302	49.439
71.332	49.439
71.362	49.439
71.393	49.439
71.423	49.439
71.453	49.439
71.483	49.439
71.513	49.439
71.544	49.438
71.574	49.438
71.604	49.438
71.634	49.438
71.664	49.438
71.695	49.438
71.725	49.438
71.755	49.438
71.785	49.438
71.815	49.438
71.845	49.439
71.876	49.442
71.906	49.441
71.936	49.441
71.966	49.442
71.996	49.443
72.027	49.444
72.057	49.443
72.087	49.443
72.117	49.443
72.147	49.443
72.177	49.443
72.208	49.443
72.238	49.440
72.268	49.444
72.298	49.443
72.328	49.443
72.359	49.443
72.389	49.443
72.419	49.443
72.449	49.443
72.479	49.443
72.510	49.443
72.540	49.443
72.570	49.443
72.600	49.443
72.630	49.443
72.660	49.443
72.691	49.443
72.721	49.443
72.751	49.443
72.781	49.443
72.811	49.443
72.842	49.444
72.872	49.444
72.902	49.443
72.932	49.443
72.962	49.443
72.993	49.443
73.023	49.443
73.053	49.443
73.083	49.444
73.113	49.443
73.144	49.444
73.174	49.444
73.204	49.446
73.234	49.446
73.264	49.446
73.294	49.445
73.325	49.445
73.355	49.444
73.385	49.443
73.415	49.443
73.445	49.444
73.476	49.445
73.506	49.445
73.536	49.447
73.566	49.447
73.596	49.447
73.626	49.447
73.657	49.447
73.687	49.447
73.717	49.447
73.747	49.448
73.777	49.449
73.808	49.449
73.838	49.449
73.868	49.449
73.898	49.449
73.928	49.449
73.958	49.451
73.989	49.451
74.019	49.453
74.049	49.453
74.079	49.453
74.109	49.454
74.140	49.455
74.170	49.456
74.200	49.456
74.230	49.455
74.260	49.455
74.291	49.455
74.321	49.455
74.351	49.455
74.381	49.455
74.411	49.455
74.441	49.456
74.472	49.457
74.502	49.457
74.532	49.457
74.562	49.456
74.592	49.456
74.623	49.457
74.653	49.457
74.683	49.457
74.713	49.456
74.743	49.457
74.773	49.458
74.804	49.457
74.834	49.457
74.864	49.457
74.894	49.457
74.924	49.457
74.955	49.457
74.985	49.459
75.015	49.461
75.045	49.461
75.075	49.461
75.106	49.461
75.136	49.461
75.166	49.462
75.196	49.461
75.226	49.461
75.256	49.461
75.287	49.461
75.317	49.462
75.347	49.461
75.377	49.462
75.407	49.462
75.438	49.462
75.468	49.463
75.498	49.463
75.528	49.463
75.558	49.464
75.589	49.464
75.619	49.464
75.649	49.465
75.679	49.465
75.709	49.465
75.739	49.465
75.770	49.465
75.800	49.465
75.830	49.465
75.860	49.465
75.890	49.465
75.921	49.465
75.951	49.465
75.981	49.465
76.011	49.465
76.041	49.465
76.071	49.465
76.102	49.465
76.132	49.465
76.162	49.465
76.192	49.465
76.222	49.465
76.253	49.465
76.283	49.465
76.313	49.466
76.343	49.466
76.373	49.466
76.404	49.466
76.434	49.466
76.464	49.466
76.494	49.466
76.524	49.466
76.554	49.466
76.585	49.466
76.615	49.466
76.645	49.466
76.675	49.466
76.705	49.466
76.736	49.466
76.766	49.466
76.796	49.466
76.826	49.466
76.856	49.466
76.886	49.466
76.917	49.466
76.947	49.465
76.977	49.465
77.007	49.465
77.037	49.465
77.068	49.464
77.098	49.464
77.128	49.464
77.158	49.464
77.188	49.465
77.219	49.466
77.249	49.466
77.279	49.466
77.309	49.466
77.339	49.466
77.369	49.466
77.400	49.466
77.430	49.466
77.460	49.466
77.490	49.466
77.520	49.466
77.551	49.466
77.581	49.466
77.611	49.466
77.641	49.467
77.671	49.468
77.701	49.468
77.732	49.468
77.762	49.468
77.792	49.468
77.822	49.468
77.852	49.468
77.883	49.468
77.913	49.468
77.943	49.468
77.973	49.468
78.003	49.468
78.033	49.468
78.064	49.468
78.094	49.469
78.124	49.468
78.154	49.469
78.184	49.469
78.215	49.469
78.245	49.469
78.275	49.469
78.305	49.469
78.335	49.469
78.366	49.469
78.396	49.469
78.426	49.469
78.456	49.471
78.486	49.472
78.516	49.475
78.547	49.475
78.577	49.477
78.607	49.477
78.637	49.477
78.667	49.477
78.698	49.477
78.728	49.477
78.758	49.477
78.788	49.477
78.818	49.477
78.849	49.478
78.879	49.480
78.909	49.481
78.939	49.481
78.969	49.481
79.000	49.481
79.030	49.481
79.060	49.482
79.090	49.482
79.120	49.483
79.151	49.483
79.181	49.483
79.211	49.483
79.241	49.483
79.271	49.483
79.302	49.483
79.332	49.483
79.362	49.483
79.392	49.485
79.422	49.485
79.453	49.485
79.483	49.485
79.513	49.486
79.543	49.486
79.573	49.486
79.604	49.485
79.634	49.486
79.664	49.486
79.694	49.486
79.724	49.486
79.755	49.486
79.785	49.486
79.815	49.486
79.845	49.486
79.875	49.486
79.905	49.486
79.936	49.486
79.966	49.486
79.996	49.486
80.026	49.486
80.056	49.486
80.087	49.486
80.117	49.486
80.147	49.486
80.177	49.486
80.207	49.486
80.238	49.486
80.268	49.486
80.298	49.488
80.328	49.488
80.358	49.488
80.389	49.488
80.419	49.488
80.449	49.488
80.479	49.488
80.509	49.488
80.540	49.488
80.570	49.488
80.600	49.488
80.630	49.488
80.660	49.488
80.691	49.488
80.721	49.488
80.751	49.488
80.781	49.487
80.811	49.488
80.842	49.488
80.872	49.488
80.902	49.488
80.932	49.488
80.962	49.488
80.993	49.488
81.023	49.488
81.053	49.488
81.083	49.488
81.113	49.488
81.144	49.488
81.174	49.488
81.204	49.488
81.234	49.488
81.264	49.488
81.295	49.488
81.325	49.488
81.355	49.488
81.385	49.489
81.415	49.489
81.445	49.489
81.476	49.489
81.506	49.489
81.536	49.489
81.566	49.489
81.596	49.489
81.627	49.489
81.657	49.489
81.687	49.489
81.717	49.489
81.747	49.489
81.778	49.489
81.808	49.490
81.838	49.492
81.868	49.492
81.898	49.492
81.929	49.492
81.959	49.493
81.989	49.492
82.019	49.492
82.049	49.493
82.080	49.493
82.110	49.493
82.140	49.493
82.170	49.493
82.200	49.493
82.231	49.493
82.261	49.494
82.291	49.495
82.321	49.494
82.351	49.494
82.382	49.494
82.412	49.494
82.442	49.495
82.472	49.495
82.502	49.495
82.533	49.495
82.563	49.495
82.593	49.495
82.623	49.495
82.653	49.495
82.683	49.495
82.714	49.495
82.744	49.495
82.774	49.495
82.804	49.495
82.834	49.495
82.865	49.495
82.895	49.495
82.925	49.495
82.955	49.495
82.985	49.495
83.016	49.495
83.046	49.496
83.076	49.497
83.106	49.496
83.136	49.496
83.167	49.496
83.197	49.496
83.227	49.496
83.257	49.496
83.287	49.496
83.318	49.496
83.348	49.497
83.378	49.497
83.408	49.497
83.438	49.497
83.469	49.499
83.499	49.499
83.529	49.499
83.559	49.500
83.589	49.504
83.620	49.506
83.650	49.506
83.680	49.506
83.710	49.506
83.740	49.506
83.771	49.506
83.801	49.506
83.831	49.506
83.861	49.506
83.891	49.506
83.922	49.506
83.952	49.506
83.982	49.507
84.012	49.511
84.042	49.511
84.073	49.511
84.103	49.511
84.133	49.511
84.163	49.511
84.193	49.511
84.223	49.512
84.254	49.513
84.284	49.513
84.314	49.513
84.344	49.513
84.374	49.513
84.405	49.515
84.435	49.516
84.465	49.515
84.495	49.516
84.525	49.516
84.556	49.516
84.586	49.516
84.616	49.516
84.646	49.516
84.676	49.516
84.707	49.515
84.737	49.515
84.767	49.515
84.797	49.515
84.827	49.515
84.858	49.515
84.888	49.515
84.918	49.515
84.948	49.515
84.978	49.515
85.009	49.515
85.039	49.515
85.069	49.515
85.099	49.515
85.129	49.515
85.160	49.515
85.190	49.515
85.220	49.515
85.250	49.515
85.280	49.515
85.311	49.515
85.341	49.515
85.371	49.515
85.401	49.515
85.431	49.517
85.462	49.517
85.492	49.517
85.522	49.517
85.552	49.517
85.582	49.517
85.613	49.517
85.643	49.517
85.673	49.517
85.703	49.517
85.733	49.517
85.764	49.517
85.794	49.517
85.824	49.517
85.854	49.517
85.884	49.517
85.914	49.518
85.945	49.518
85.975	49.518
86.005	49.518
86.035	49.518
86.065	49.518
86.096	49.518
86.126	49.518
86.156	49.518
86.186	49.518
86.216	49.518
86.247	49.518
86.277	49.518
86.307	49.518
86.337	49.518
86.367	49.518
86.398	49.518
86.428	49.518
86.458	49.517
86.488	49.517
86.518	49.517
86.549	49.517
86.579	49.517
86.609	49.517
86.639	49.517
86.669	49.517
86.700	49.517
86.730	49.517
86.760	49.517
86.790	49.517
86.820	49.517
86.851	49.517
86.881	49.518
86.911	49.517
86.941	49.515
86.971	49.515
87.002	49.517
87.032	49.517
87.062	49.518
87.092	49.520
87.122	49.520
87.153	49.520
87.183	49.520
87.213	49.520
87.243	49.520
87.273	49.520
87.304	49.520
87.334	49.520
87.364	49.520
87.394	49.520
87.424	49.519
87.455	49.519
87.485	49.520
87.515	49.519
87.545	49.519
87.575	49.519
87.605	49.519
87.636	49.520
87.666	49.520
87.696	49.520
87.726	49.520
87.757	49.520
87.787	49.520
87.817	49.520
87.847	49.520
87.877	49.520
87.908	49.520
87.938	49.520
87.968	49.520
87.998	49.520
88.028	49.520
88.059	49.520
88.089	49.520
88.119	49.520
88.149	49.520
88.179	49.519
88.210	49.520
88.240	49.520
88.270	49.520
88.300	49.521
88.330	49.522
88.361	49.522
88.391	49.523
88.421	49.523
88.451	49.523
88.481	49.523
88.512	49.522
88.542	49.525
88.572	49.525
88.602	49.525
88.632	49.525
88.663	49.526
88.693	49.527
88.723	49.527
88.753	49.527
88.783	49.527
88.813	49.527
88.844	49.527
88.874	49.527
88.904	49.527
88.934	49.528
88.964	49.528
88.995	49.528
89.025	49.528
89.055	49.528
89.085	49.528
89.115	49.528
89.146	49.528
89.176	49.528
89.206	49.528
89.236	49.528
89.266	49.528
89.297	49.528
89.327	49.528
89.357	49.529
89.387	49.529
89.417	49.529
89.448	49.529
89.478	49.529
89.508	49.529
89.538	49.528
89.568	49.529
89.599	49.529
89.629	49.528
89.659	49.529
89.689	49.529
89.719	49.529
89.750	49.528
89.780	49.528
89.810	49.528
89.840	49.528
89.870	49.529
89.900	49.529
89.931	49.528
89.961	49.528
89.991	49.528
90.021	49.528
90.051	49.529
90.082	49.529
90.112	49.530
90.142	49.530
90.172	49.530
90.202	49.531
90.233	49.531
90.263	49.532
90.293	49.532
90.323	49.532
90.353	49.532
90.383	49.532
90.414	49.532
90.444	49.532
90.474	49.534
90.504	49.534
90.534	49.534
90.565	49.534
90.595	49.534
90.625	49.534
90.655	49.534
90.685	49.534
90.716	49.534
90.746	49.534
90.776	49.534
90.806	49.534
90.836	49.534
90.866	49.534
90.897	49.533
90.927	49.533
90.957	49.533
90.987	49.533
91.017	49.533
91.048	49.533
91.078	49.533
91.108	49.533
91.138	49.533
91.168	49.533
91.199	49.533
91.229	49.533
91.259	49.533
91.289	49.533
91.319	49.532
91.349	49.531
91.380	49.532
91.410	49.532
91.440	49.533
91.470	49.534
91.500	49.534
91.531	49.535
91.561	49.535
91.591	49.535
91.621	49.535
91.651	49.535
91.681	49.535
91.712	49.535
91.742	49.535
91.772	49.535
91.802	49.535
91.832	49.535
91.863	49.535
91.893	49.535
91.923	49.535
91.953	49.535
91.983	49.535
92.013	49.535
92.044	49.536
92.074	49.536
92.104	49.537
92.134	49.537
92.164	49.537
92.195	49.537
92.225	49.538
92.255	49.537
92.285	49.538
92.315	49.538
92.346	49.538
92.376	49.538
92.406	49.538
92.436	49.538
92.466	49.538
92.496	49.538
92.527	49.538
92.557	49.538
92.587	49.538
92.617	49.538
92.647	49.538
92.678	49.538
92.708	49.538
92.738	49.539
92.768	49.540
92.798	49.541
92.829	49.541
92.859	49.541
92.889	49.541
92.919	49.542
92.949	49.542
92.979	49.544
93.010	49.545
93.040	49.544
93.070	49.545
93.100	49.545
93.130	49.546
93.161	49.546
93.191	49.546
93.221	49.546
93.251	49.546
93.281	49.546
93.311	49.546
93.342	49.546
93.372	49.546
93.402	49.546
93.432	49.546
93.462	49.546
93.493	49.546
93.523	49.546
93.553	49.546
93.583	49.547
93.613	49.547
93.643	49.547
93.674	49.547
93.704	49.547
93.734	49.547
93.764	49.547
93.794	49.547
93.825	49.547
93.855	49.547
93.885	49.547
93.915	49.547
93.945	49.547
93.976	49.547
94.006	49.548
94.036	49.548
94.066	49.548
94.096	49.548
94.126	49.548
94.157	49.549
94.187	49.549
94.217	49.550
94.247	49.550
94.277	49.550
94.308	49.550
94.338	49.550
94.368	49.550
94.398	49.550
94.428	49.550
94.458	49.550
94.489	49.550
94.519	49.550
94.549	49.550
94.579	49.550
94.609	49.550
94.640	49.550
94.670	49.550
94.700	49.550
94.730	49.550
94.760	49.550
94.791	49.550
94.821	49.549
94.851	49.550
94.881	49.550
94.911	49.550
94.941	49.550
94.972	49.550
95.002	49.550
95.032	49.550
95.062	49.550
95.092	49.551
95.123	49.551
95.153	49.551
95.183	49.551
95.213	49.551
95.243	49.551
95.274	49.552
95.304	49.552
95.334	49.552
95.364	49.552
95.394	49.552
95.424	49.552
95.455	49.553
95.485	49.554
95.515	49.554
95.545	49.554
95.575	49.554
95.606	49.554
95.636	49.554
95.666	49.554
95.696	49.554
95.726	49.554
95.757	49.554
95.787	49.556
95.817	49.557
95.847	49.557
95.877	49.557
95.907	49.557
95.938	49.557
95.968	49.557
95.998	49.557
96.028	49.557
96.058	49.557
96.089	49.557
96.119	49.557
96.149	49.557
96.179	49.558
96.209	49.558
96.240	49.558
96.270	49.558
96.300	49.558
96.330	49.558
96.360	49.558
96.390	49.558
96.421	49.558
96.451	49.558
96.481	49.558
96.511	49.558
96.541	49.558
96.572	49.558
96.602	49.558
96.632	49.558
96.662	49.558
96.692	49.559
96.723	49.559
96.753	49.558
96.783	49.558
96.813	49.559
96.843	49.559
96.873	49.559
96.904	49.559
96.934	49.559
96.964	49.559
96.994	49.559
97.024	49.559
97.055	49.559
97.085	49.559
97.115	49.560
97.145	49.560
97.175	49.561
97.205	49.563
97.236	49.564
97.266	49.564
97.296	49.564
97.326	49.564
97.356	49.564
97.387	49.564
97.417	49.564
97.447	49.564
97.477	49.564
97.507	49.564
97.538	49.564
97.568	49.565
97.598	49.565
97.628	49.565
97.658	49.565
97.688	49.565
97.719	49.566
97.749	49.566
97.779	49.568
97.809	49.568
97.839	49.568
97.870	49.568
97.900	49.568
97.930	49.568
97.960	49.568
97.990	49.568
98.021	49.567
98.051	49.566
98.081	49.569
98.111	49.569
98.141	49.569
98.171	49.570
98.202	49.570
98.232	49.570
98.262	49.570
98.292	49.570
98.322	49.570
98.353	49.570
98.383	49.570
98.413	49.570
98.443	49.570
98.473	49.570
98.504	49.570
98.534	49.570
98.564	49.570
98.594	49.570
98.624	49.570
98.654	49.570
98.685	49.570
98.715	49.570
98.745	49.570
98.775	49.570
98.805	49.570
98.836	49.570
98.866	49.570
98.896	49.570
98.926	49.570
98.956	49.571
98.986	49.571
99.017	49.571
99.047	49.571
99.077	49.571
99.107	49.573
99.137	49.574
99.168	49.574
99.198	49.574
99.228	49.574
99.258	49.574
99.288	49.574
99.319	49.574
99.349	49.574
99.379	49.574
99.409	49.574
99.439	49.574
99.469	49.574
99.500	49.574
99.530	49.575
99.560	49.575
99.590	49.577
99.620	49.578
99.651	49.578
99.681	49.578
99.711	49.578
99.741	49.577
99.771	49.578
99.802	49.578
99.832	49.578
99.862	49.578
99.892	49.578
99.922	49.578
99.952	49.578
99.983	49.578
100.013	49.578
100.043	49.578
100.073	49.578
100.103	49.579
100.134	49.579
100.164	49.703
100.194	49.704
100.224	49.705
100.254	49.706
100.284	49.706
100.315	49.705
100.345	49.705
100.375	49.704
100.405	49.702
100.436	49.695
100.466	49.695
100.496	49.696
100.526	49.697
100.556	49.696
100.586	49.694
100.617	49.674
100.647	49.693
100.677	49.701
100.707	49.710
100.737	49.713
100.768	49.714
100.798	49.714
100.828	49.714
100.858	49.714
100.888	49.714
100.919	49.714
100.949	49.715
100.979	49.715
101.009	49.715
101.039	49.715
101.070	49.716
101.100	49.716
101.130	49.716
101.160	49.716
101.190	49.716
101.221	49.715
101.251	49.718
101.281	49.719
101.311	49.719
101.341	49.719
101.372	49.720
101.402	49.720
101.432	49.720
101.462	49.720
101.492	49.720
101.523	49.720
101.553	49.720
101.583	49.720
101.613	49.720
101.643	49.720
101.674	49.720
101.704	49.720
101.734	49.720
101.764	49.720
101.794	49.720
101.825	49.720
101.855	49.720
101.885	49.720
101.915	49.720
101.945	49.720
101.976	49.720
102.006	49.720
102.036	49.721
102.066	49.721
102.096	49.721
102.127	49.721
102.157	49.721
102.187	49.721
102.217	49.721
102.247	49.723
102.278	49.723
102.308	49.724
102.338	49.724
102.368	49.725
102.398	49.725
102.429	49.725
102.459	49.725
102.489	49.725
102.519	49.725
102.549	49.725
102.579	49.725
102.610	49.725
102.640	49.725
102.670	49.726
102.700	49.726
102.730	49.726
102.761	49.726
102.791	49.726
102.821	49.726
102.851	49.726
102.881	49.726
102.912	49.726
102.942	49.726
102.972	49.726
103.002	49.726
103.032	49.727
103.063	49.729
103.093	49.729
103.123	49.729
103.153	49.729
103.183	49.728
103.213	49.728
103.244	49.729
103.274	49.729
103.304	49.729
103.334	49.729
103.364	49.729
103.395	49.730
103.425	49.730
103.455	49.730
103.485	49.730
103.515	49.730
103.546	49.730
103.576	49.730
103.606	49.731
103.636	49.731
103.666	49.731
103.696	49.731
103.727	49.731
103.757	49.731
103.787	49.731
103.817	49.731
103.847	49.731
103.878	49.731
103.908	49.731
103.938	49.731
103.968	49.731
103.998	49.731
104.028	49.731
104.059	49.731
104.089	49.731
104.119	49.731
104.149	49.731
104.179	49.731
104.210	49.731
104.240	49.731
104.270	49.731
104.300	49.731
104.330	49.731
104.360	49.731
104.391	49.731
104.421	49.731
104.451	49.731
104.481	49.732
104.511	49.732
104.542	49.732
104.572	49.734
104.602	49.735
104.632	49.735
104.662	49.735
104.693	49.735
104.723	49.735
104.753	49.735
104.783	49.735
104.813	49.735
104.844	49.734
104.874	49.734
104.904	49.734
104.934	49.734
104.964	49.735
104.994	49.734
105.025	49.735
105.055	49.735
105.085	49.735
105.115	49.735
105.145	49.735
105.176	49.735
105.206	49.735
105.236	49.735
105.266	49.735
105.296	49.735
105.327	49.735
105.357	49.735
105.387	49.735
105.417	49.735
105.447	49.735
105.477	49.736
105.508	49.736
105.538	49.736
105.568	49.736
105.598	49.736
105.628	49.736
105.659	49.736
105.689	49.736
105.719	49.736
105.749	49.736
105.779	49.736
105.810	49.736
105.840	49.736
105.870	49.736
105.900	49.736
105.930	49.738
105.960	49.738
105.991	49.739
106.021	49.739
106.051	49.740
106.081	49.739
106.111	49.740
106.142	49.740
106.172	49.740
106.202	49.740
106.232	49.740
106.262	49.740
106.292	49.741
106.323	49.740
106.353	49.741
106.383	49.741
106.413	49.742
106.443	49.742
106.473	49.742
106.504	49.742
106.534	49.742
106.564	49.742
106.594	49.742
106.624	49.742
106.655	49.742
106.685	49.742
106.715	49.742
106.745	49.742
106.775	49.742
106.806	49.742
106.836	49.742
106.866	49.742
106.896	49.742
106.926	49.742
106.956	49.742
106.987	49.742
107.017	49.743
107.047	49.743
107.077	49.743
107.107	49.744
107.138	49.744
107.168	49.744
107.198	49.744
107.228	49.744
107.258	49.744
107.289	49.744
107.319	49.744
107.349	49.744
107.379	49.744
107.409	49.744
107.439	49.744
107.470	49.744
107.500	49.744
107.530	49.744
107.560	49.745
107.590	49.745
107.621	49.745
107.651	49.745
107.681	49.745
107.711	49.745
107.741	49.745
107.772	49.745
107.802	49.745
107.832	49.745
107.862	49.745
107.892	49.746
107.923	49.747
107.953	49.748
107.983	49.748
108.013	49.748
108.043	49.748
108.073	49.748
108.104	49.748
108.134	49.748
108.164	49.748
108.194	49.748
108.224	49.748
108.255	49.748
108.285	49.748
108.315	49.748
108.345	49.748
108.375	49.748
108.406	49.748
108.436	49.748
108.466	49.749
108.496	49.751
108.526	49.751
108.557	49.751
108.587	49.751
108.617	49.752
108.647	49.752
108.677	49.751
108.707	49.751
108.738	49.751
108.768	49.752
108.798	49.752
108.828	49.751
108.858	49.752
108.889	49.752
108.919	49.752
108.949	49.752
108.979	49.752
109.009	49.752
109.039	49.752
109.070	49.752
109.100	49.752
109.130	49.752
109.160	49.752
109.190	49.752
109.221	49.752
109.251	49.752
109.281	49.752
109.311	49.752
109.341	49.752
109.372	49.752
109.402	49.752
109.432	49.752
109.462	49.751
109.492	49.751
109.522	49.751
109.553	49.751
109.583	49.752
109.613	49.752
109.643	49.752
109.673	49.752
109.704	49.752
109.734	49.752
109.764	49.752
109.794	49.753
109.824	49.753
109.854	49.753
109.885	49.753
109.915	49.753
109.945	49.753
109.975	49.754
110.005	49.754
110.036	49.753
110.066	49.752
110.096	49.752
110.126	49.752
110.156	49.752
110.187	49.752
110.217	49.752
110.247	49.752
110.277	49.752
110.307	49.752
110.337	49.753
110.368	49.753
110.398	49.753
110.428	49.753
110.458	49.753
110.488	49.753
110.519	49.753
110.549	49.753
110.579	49.753
110.609	49.753
110.639	49.754
110.670	49.754
110.700	49.755
110.730	49.756
110.760	49.757
110.790	49.757
110.820	49.756
110.851	49.757
110.881	49.758
110.911	49.758
110.941	49.758
110.971	49.758
111.002	49.759
111.032	49.758
111.062	49.758
111.092	49.758
111.122	49.758
111.152	49.756
111.183	49.758
111.213	49.759
111.243	49.760
111.273	49.760
111.303	49.761
111.334	49.763
111.364	49.763
111.394	49.764
111.424	49.764
111.454	49.764
111.485	49.764
111.515	49.763
111.545	49.763
111.575	49.763
111.605	49.763
111.635	49.763
111.666	49.763
111.696	49.763
111.726	49.763
111.756	49.763
111.786	49.764
111.817	49.764
111.847	49.764
111.877	49.765
111.907	49.765
111.937	49.765
111.968	49.765
111.998	49.765
112.028	49.766
112.058	49.767
112.088	49.768
112.118	49.768
112.149	49.768
112.179	49.768
112.209	49.768
112.239	49.769
112.269	49.768
112.300	49.768
112.330	49.768
112.360	49.768
112.390	49.768
112.420	49.768
112.451	49.769
112.481	49.769
112.511	49.769
112.541	49.770
112.571	49.770
112.601	49.770
112.632	49.771
112.662	49.771
112.692	49.771
112.722	49.770
112.752	49.774
112.783	49.774
112.813	49.774
112.843	49.774
112.873	49.774
112.903	49.774
112.933	49.774
112.964	49.774
112.994	49.775
113.024	49.775
113.054	49.775
113.084	49.775
113.115	49.775
113.145	49.775
113.175	49.775
113.205	49.776
113.235	49.776
113.266	49.776
113.296	49.775
113.326	49.775
113.356	49.776
113.386	49.777
113.416	49.777
113.447	49.777
113.477	49.777
113.507	49.776
113.537	49.777
113.567	49.777
113.598	49.776
113.628	49.778
113.658	49.779
113.688	49.780
113.718	49.780
113.748	49.780
113.779	49.780
113.809	49.780
113.839	49.780
113.869	49.781
113.899	49.781
113.930	49.781
113.960	49.781
113.990	49.781
114.020	49.782
114.050	49.782
114.080	49.782
114.111	49.782
114.141	49.782
114.171	49.782
114.201	49.782
114.231	49.783
114.262	49.783
114.292	49.783
114.322	49.783
114.352	49.783
114.382	49.783
114.413	49.784
114.443	49.784
114.473	49.785
114.503	49.785
114.533	49.785
114.563	49.785
114.594	49.785
114.624	49.785
114.654	49.785
114.684	49.785
114.714	49.785
114.745	49.785
114.775	49.785
114.805	49.786
114.835	49.786
114.865	49.786
114.895	49.785
114.926	49.786
114.956	49.786
114.986	49.786
115.016	49.786
115.046	49.786
115.077	49.786
115.107	49.786
115.137	49.786
115.167	49.786
115.197	49.786
115.227	49.786
115.258	49.786
115.288	49.786
115.318	49.786
115.348	49.786
115.378	49.786
115.409	49.786
115.439	49.786
115.469	49.786
115.499	49.786
115.529	49.786
115.560	49.786
115.590	49.787
115.620	49.787
115.650	49.787
115.680	49.787
115.710	49.787
115.741	49.787
115.771	49.787
115.801	49.787
115.831	49.789
115.861	49.789
115.892	49.789
115.922	49.789
115.952	49.789
115.982	49.790
116.012	49.790
116.043	49.790
116.073	49.790
116.103	49.790
116.133	49.791
116.163	49.792
116.193	49.792
116.224	49.792
116.254	49.792
116.284	49.792
116.314	49.792
116.344	49.792
116.375	49.792
116.405	49.792
116.435	49.792
116.465	49.792
116.495	49.792
116.525	49.792
116.556	49.792
116.586	49.792
116.616	49.791
116.646	49.791
116.676	49.791
116.706	49.792
116.737	49.792
116.767	49.792
116.797	49.792
116.827	49.792
116.857	49.792
116.888	49.793
116.918	49.793
116.948	49.793
116.978	49.793
117.008	49.793
117.038	49.793
117.069	49.793
117.099	49.793
117.129	49.793
117.159	49.795
117.189	49.795
117.220	49.795
117.250	49.795
117.280	49.795
117.310	49.795
117.340	49.795
117.371	49.795
117.401	49.795
117.431	49.796
117.461	49.796
117.491	49.796
117.521	49.796
117.552	49.797
117.582	49.797
117.612	49.798
117.642	49.799
117.672	49.799
117.703	49.799
117.733	49.799
117.763	49.799
117.793	49.799
117.823	49.799
117.854	49.799
117.884	49.799
117.914	49.799
117.944	49.799
117.974	49.799
118.004	49.799
118.035	49.799
118.065	49.799
118.095	49.799
118.125	49.799
118.155	49.799
118.186	49.799
118.216	49.799
118.246	49.799
118.276	49.799
118.306	49.799
118.337	49.799
118.367	49.800
118.397	49.800
118.427	49.800
118.457	49.799
118.487	49.800
118.518	49.800
118.548	49.800
118.578	49.800
118.608	49.801
118.638	49.801
118.669	49.801
118.699	49.801
118.729	49.802
118.759	49.802
118.789	49.802
118.819	49.802
118.850	49.802
118.880	49.802
118.910	49.802
118.940	49.802
118.970	49.803
119.001	49.804
119.031	49.803
119.061	49.803
119.091	49.805
119.121	49.805
119.151	49.805
119.182	49.805
119.212	49.805
119.242	49.805
119.272	49.805
119.302	49.805
119.333	49.805
119.363	49.805
119.393	49.806
119.423	49.806
119.453	49.806
119.483	49.806
119.514	49.806
119.544	49.806
119.574	49.806
119.604	49.806
119.634	49.806
119.665	49.806
119.695	49.806
119.725	49.806
119.755	49.806
119.785	49.806
119.816	49.806
119.846	49.806
119.876	49.806
119.906	49.806
119.936	49.806
119.966	49.806
119.997	49.806
120.027	49.806
120.057	49.806
120.087	49.806
120.117	49.806
120.148	49.806
120.178	49.806
120.208	49.806
120.238	49.806
120.268	49.805
120.299	49.805
120.329	49.805
120.359	49.806
120.389	49.806
120.419	49.806
120.450	49.806
120.480	49.807
120.510	49.807
120.540	49.806
120.570	49.806
120.600	49.806
120.631	49.807
120.661	49.806
120.691	49.807
120.721	49.807
120.751	49.807
120.782	49.807
120.812	49.807
120.842	49.807
120.872	49.807
120.902	49.807
120.933	49.807
120.963	49.807
120.993	49.807
121.023	49.807
121.053	49.807
121.084	49.807
121.114	49.807
121.144	49.807
121.174	49.806
121.204	49.806
121.234	49.806
121.265	49.806
121.295	49.806
121.325	49.807
121.355	49.807
121.385	49.807
121.416	49.807
121.446	49.807
121.476	49.807
121.506	49.807
121.536	49.807
121.566	49.807
121.597	49.807
121.627	49.807
121.657	49.808
121.687	49.809
121.717	49.809
121.748	49.809
121.778	49.809
121.808	49.809
121.838	49.809
121.868	49.809
121.898	49.809
121.929	49.810
121.959	49.810
121.989	49.810
122.019	49.811
122.049	49.812
122.080	49.812
122.110	49.812
122.140	49.812
122.170	49.812
122.200	49.812
122.231	49.812
122.261	49.812
122.291	49.812
122.321	49.812
122.351	49.812
122.381	49.812
122.412	49.812
122.442	49.813
122.472	49.813
122.502	49.814
122.532	49.814
122.563	49.814
122.593	49.814
122.623	49.814
122.653	49.814
122.683	49.814
122.713	49.814
122.744	49.814
122.774	49.814
122.804	49.814
122.834	49.814
122.864	49.814
122.895	49.814
122.925	49.814
122.955	49.814
122.985	49.814
123.015	49.814
123.045	49.814
123.076	49.814
123.106	49.814
123.136	49.814
123.166	49.814
123.196	49.814
123.227	49.814
123.257	49.814
123.287	49.814
123.317	49.814
123.347	49.814
123.378	49.814
123.408	49.814
123.438	49.814
123.468	49.814
123.498	49.814
123.528	49.814
123.559	49.814
123.589	49.814
123.619	49.814
123.649	49.814

