NW1 Channel 9 Rise @ 5V (EXP56)	
Time (s)	Current (mA)
0.025	49.176
0.055	49.918
0.085	50.159
0.115	50.359
0.145	50.455
0.175	50.524
0.205	50.225
0.236	50.068
0.266	50.228
0.296	50.267
0.326	50.316
0.356	50.345
0.387	50.378
0.417	50.437
0.447	50.519
0.477	50.826
0.507	50.915
0.538	51.048
0.568	51.122
0.598	51.199
0.628	51.260
0.658	51.292
0.689	51.331
0.719	51.403
0.749	51.454
0.779	51.526
0.809	51.552
0.839	51.562
0.870	51.575
0.900	51.605
0.930	51.693
0.960	51.710
0.990	51.737
1.021	51.775
1.051	51.794
1.081	51.811
1.111	51.832
1.141	51.849
1.172	51.857
1.202	51.928
1.232	51.957
1.262	51.972
1.292	51.997
1.322	52.000
1.353	52.013
1.383	52.015
1.413	52.035
1.443	52.047
1.473	52.072
1.504	52.158
1.534	52.166
1.564	52.194
1.594	52.202
1.624	52.208
1.655	52.223
1.685	52.254
1.715	52.288
1.745	52.307
1.775	52.343
1.806	52.355
1.836	52.358
1.866	52.375
1.896	52.415
1.926	52.421
1.956	52.444
1.987	52.501
2.017	52.522
2.047	52.534
2.077	52.542
2.107	52.585
2.138	52.607
2.168	52.623
2.198	52.645
2.228	52.677
2.258	52.703
2.289	52.708
2.319	52.707
2.349	52.719
2.379	52.732
2.409	52.736
2.439	52.734
2.470	52.732
2.500	52.733
2.530	52.733
2.560	52.733
2.590	52.739
2.621	52.756
2.651	52.775
2.681	52.780
2.711	52.783
2.741	52.790
2.771	52.828
2.802	52.858
2.832	52.859
2.862	52.871
2.892	52.876
2.922	52.887
2.953	52.888
2.983	52.891
3.013	52.905
3.043	52.935
3.073	52.942
3.104	52.953
3.134	52.959
3.164	52.962
3.194	52.965
3.224	52.969
3.254	52.969
3.285	53.003
3.315	53.011
3.345	53.015
3.375	53.015
3.405	53.020
3.436	53.041
3.466	53.057
3.496	53.065
3.526	53.074
3.556	53.079
3.587	53.083
3.617	53.086
3.647	53.094
3.677	53.098
3.707	53.111
3.738	53.112
3.768	53.117
3.798	53.129
3.828	53.132
3.858	53.148
3.888	53.179
3.919	53.184
3.949	53.187
3.979	53.191
4.009	53.200
4.039	53.203
4.070	53.207
4.100	53.210
4.130	53.210
4.160	53.217
4.190	53.221
4.221	53.222
4.251	53.224
4.281	53.242
4.311	53.248
4.341	53.257
4.372	53.264
4.402	53.272
4.432	53.274
4.462	53.273
4.492	53.286
4.522	53.296
4.553	53.298
4.583	53.301
4.613	53.306
4.643	53.313
4.673	53.312
4.704	53.320
4.734	53.328
4.764	53.339
4.794	53.339
4.824	53.335
4.854	53.343
4.885	53.349
4.915	53.362
4.945	53.362
4.975	53.366
5.005	53.364
5.036	53.368
5.066	53.376
5.096	53.379
5.126	53.388
5.156	53.389
5.187	53.388
5.217	53.391
5.247	53.390
5.277	53.401
5.307	53.402
5.337	53.401
5.368	53.402
5.398	53.403
5.428	53.406
5.458	53.409
5.488	53.415
5.519	53.437
5.549	53.440
5.579	53.441
5.609	53.445
5.639	53.445
5.670	53.443
5.700	53.440
5.730	53.445
5.760	53.454
5.790	53.465
5.821	53.469
5.851	53.467
5.881	53.469
5.911	53.471
5.941	53.467
5.972	53.473
6.002	53.476
6.032	53.476
6.062	53.474
6.092	53.476
6.123	53.475
6.153	53.478
6.183	53.483
6.213	53.483
6.243	53.481
6.273	53.486
6.304	53.489
6.334	53.493
6.364	53.500
6.394	53.499
6.424	53.500
6.455	53.511
6.485	53.511
6.515	53.514
6.545	53.521
6.575	53.525
6.606	53.526
6.636	53.525
6.666	53.529
6.696	53.527
6.726	53.526
6.756	53.528
6.787	53.533
6.817	53.542
6.847	53.573
6.877	53.580
6.907	53.593
6.938	53.598
6.968	53.600
6.998	53.602
7.028	53.610
7.058	53.611
7.089	53.611
7.119	53.618
7.149	53.617
7.179	53.619
7.209	53.627
7.240	53.629
7.270	53.627
7.300	53.630
7.330	53.645
7.360	53.654
7.390	53.657
7.421	53.655
7.451	53.669
7.481	53.671
7.511	53.673
7.541	53.678
7.572	53.682
7.602	53.685
7.632	53.692
7.662	53.698
7.692	53.703
7.723	53.704
7.753	53.708
7.783	53.714
7.813	53.712
7.843	53.724
7.874	53.736
7.904	53.737
7.934	53.736
7.964	53.736
7.994	53.734
8.024	53.741
8.055	53.747
8.085	53.748
8.115	53.750
8.145	53.751
8.175	53.752
8.206	53.756
8.236	53.756
8.266	53.755
8.296	53.755
8.326	53.753
8.356	53.757
8.387	53.756
8.417	53.762
8.447	53.775
8.477	53.786
8.507	53.794
8.538	53.794
8.568	53.800
8.598	53.812
8.628	53.814
8.658	53.822
8.689	53.829
8.719	53.831
8.749	53.832
8.779	53.838
8.809	53.835
8.840	53.848
8.870	53.848
8.900	53.859
8.930	53.889
8.960	53.891
8.990	53.899
9.021	53.903
9.051	53.913
9.081	53.915
9.111	53.918
9.141	53.926
9.172	53.933
9.202	53.936
9.232	53.937
9.262	53.941
9.292	53.941
9.323	53.944
9.353	53.950
9.383	53.955
9.413	53.956
9.443	53.963
9.473	53.963
9.504	53.964
9.534	53.969
9.564	53.971
9.594	53.977
9.624	53.980
9.655	53.982
9.685	53.982
9.715	53.983
9.745	53.984
9.775	53.985
9.806	53.985
9.836	53.986
9.866	53.987
9.896	53.988
9.926	53.989
9.957	53.989
9.987	53.987
10.017	53.986
10.047	53.986
10.077	53.986
10.107	53.986
10.138	53.986
10.168	53.992
10.198	53.992
10.228	53.993
10.258	53.993
10.289	53.994
10.319	53.995
10.349	53.995
10.379	53.997
10.409	53.997
10.440	53.998
10.470	53.999
10.500	54.005
10.530	54.007
10.560	54.009
10.591	54.010
10.621	54.014
10.651	54.014
10.681	54.014
10.711	54.014
10.742	54.014
10.772	54.016
10.802	54.016
10.832	54.019
10.862	54.020
10.893	54.020
10.923	54.020
10.953	54.020
10.983	54.022
11.013	54.032
11.044	54.035
11.074	54.045
11.104	54.048
11.134	54.048
11.164	54.051
11.194	54.053
11.225	54.054
11.255	54.058
11.285	54.062
11.315	54.062
11.345	54.067
11.376	54.070
11.406	54.083
11.436	54.089
11.466	54.093
11.496	54.094
11.526	54.096
11.557	54.106
11.587	54.107
11.617	54.109
11.647	54.110
11.677	54.121
11.708	54.125
11.738	54.127
11.768	54.128
11.798	54.136
11.828	54.146
11.859	54.150
11.889	54.151
11.919	54.156
11.949	54.158
11.979	54.158
12.009	54.159
12.040	54.162
12.070	54.175
12.100	54.176
12.130	54.176
12.160	54.178
12.191	54.181
12.221	54.180
12.251	54.179
12.281	54.186
12.311	54.187
12.342	54.188
12.372	54.188
12.402	54.189
12.432	54.190
12.462	54.191
12.493	54.196
12.523	54.199
12.553	54.200
12.583	54.200
12.613	54.200
12.644	54.202
12.674	54.207
12.704	54.207
12.734	54.207
12.764	54.207
12.795	54.210
12.825	54.213
12.855	54.219
12.885	54.221
12.915	54.220
12.946	54.220
12.976	54.216
13.006	54.223
13.036	54.225
13.066	54.229
13.097	54.231
13.127	54.232
13.157	54.234
13.187	54.235
13.217	54.236
13.247	54.238
13.278	54.238
13.308	54.238
13.338	54.239
13.368	54.241
13.398	54.242
13.429	54.241
13.459	54.242
13.489	54.243
13.519	54.246
13.549	54.248
13.580	54.251
13.610	54.252
13.640	54.262
13.670	54.264
13.700	54.268
13.730	54.269
13.761	54.270
13.791	54.270
13.821	54.270
13.851	54.269
13.881	54.270
13.912	54.271
13.942	54.271
13.972	54.275
14.002	54.277
14.032	54.281
14.062	54.282
14.093	54.281
14.123	54.282
14.153	54.284
14.183	54.291
14.213	54.292
14.244	54.295
14.274	54.299
14.304	54.304
14.334	54.304
14.364	54.305
14.395	54.312
14.425	54.314
14.455	54.314
14.485	54.316
14.515	54.323
14.545	54.336
14.576	54.339
14.606	54.343
14.636	54.343
14.666	54.344
14.696	54.346
14.727	54.355
14.757	54.362
14.787	54.364
14.817	54.365
14.847	54.367
14.878	54.370
14.908	54.372
14.938	54.377
14.968	54.380
14.998	54.383
15.028	54.386
15.059	54.387
15.089	54.387
15.119	54.391
15.149	54.392
15.179	54.394
15.210	54.398
15.240	54.399
15.270	54.398
15.300	54.397
15.330	54.397
15.361	54.400
15.391	54.401
15.421	54.407
15.451	54.407
15.481	54.408
15.512	54.410
15.542	54.411
15.572	54.413
15.602	54.413
15.632	54.416
15.663	54.419
15.693	54.420
15.723	54.420
15.753	54.420
15.783	54.421
15.814	54.423
15.844	54.424
15.874	54.425
15.904	54.425
15.934	54.425
15.965	54.426
15.995	54.448
16.025	54.449
16.055	54.449
16.085	54.451
16.116	54.452
16.146	54.452
16.176	54.459
16.206	54.464
16.236	54.467
16.266	54.469
16.297	54.469
16.327	54.472
16.357	54.472
16.387	54.473
16.417	54.474
16.448	54.476
16.478	54.476
16.508	54.478
16.538	54.481
16.568	54.482
16.599	54.483
16.629	54.485
16.659	54.485
16.689	54.486
16.719	54.487
16.749	54.487
16.780	54.490
16.810	54.492
16.840	54.498
16.870	54.502
16.900	54.505
16.931	54.506
16.961	54.506
16.991	54.511
17.021	54.514
17.051	54.515
17.081	54.515
17.112	54.519
17.142	54.527
17.172	54.528
17.202	54.529
17.232	54.529
17.263	54.530
17.293	54.530
17.323	54.532
17.353	54.533
17.383	54.534
17.413	54.536
17.444	54.538
17.474	54.539
17.504	54.541
17.534	54.542
17.564	54.543
17.595	54.543
17.625	54.545
17.655	54.547
17.685	54.548
17.715	54.553
17.746	54.554
17.776	54.554
17.806	54.558
17.836	54.559
17.866	54.560
17.897	54.564
17.927	54.565
17.957	54.566
17.987	54.567
18.017	54.570
18.047	54.571
18.078	54.573
18.108	54.574
18.138	54.574
18.168	54.578
18.198	54.582
18.229	54.582
18.259	54.583
18.289	54.584
18.319	54.584
18.349	54.586
18.380	54.613
18.410	54.616
18.440	54.620
18.470	54.621
18.500	54.621
18.531	54.623
18.561	54.622
18.591	54.627
18.621	54.628
18.651	54.630
18.682	54.631
18.712	54.632
18.742	54.633
18.772	54.633
18.802	54.633
18.832	54.632
18.863	54.633
18.893	54.634
18.923	54.630
18.953	54.636
18.983	54.636
19.014	54.635
19.044	54.635
19.074	54.635
19.104	54.635
19.134	54.635
19.165	54.635
19.195	54.637
19.225	54.637
19.255	54.639
19.285	54.638
19.315	54.637
19.346	54.643
19.376	54.643
19.406	54.643
19.436	54.643
19.466	54.643
19.497	54.644
19.527	54.646
19.557	54.654
19.587	54.659
19.617	54.660
19.648	54.661
19.678	54.663
19.708	54.663
19.738	54.663
19.768	54.664
19.798	54.666
19.829	54.669
19.859	54.670
19.889	54.672
19.919	54.674
19.949	54.677
19.980	54.680
20.010	54.687
20.040	54.688
20.070	54.688
20.100	54.688
20.130	54.689
20.161	54.690
20.191	54.690
20.221	54.692
20.251	54.695
20.281	54.697
20.312	54.698
20.342	54.701
20.372	54.701
20.402	54.701
20.432	54.703
20.463	54.704
20.493	54.708
20.523	54.708
20.553	54.708
20.583	54.708
20.613	54.708
20.644	54.710
20.674	54.711
20.704	54.711
20.734	54.712
20.764	54.713
20.795	54.715
20.825	54.730
20.855	54.739
20.885	54.739
20.915	54.740
20.946	54.740
20.976	54.744
21.006	54.745
21.036	54.745
21.066	54.751
21.097	54.751
21.127	54.751
21.157	54.752
21.187	54.753
21.217	54.755
21.247	54.757
21.278	54.779
21.308	54.787
21.338	54.792
21.368	54.795
21.398	54.796
21.429	54.797
21.459	54.797
21.489	54.799
21.519	54.801
21.549	54.801
21.580	54.805
21.610	54.806
21.640	54.808
21.670	54.809
21.700	54.810
21.731	54.811
21.761	54.812
21.791	54.812
21.821	54.812
21.851	54.813
21.882	54.815
21.912	54.817
21.942	54.818
21.972	54.818
22.002	54.818
22.032	54.818
22.063	54.819
22.093	54.819
22.123	54.821
22.153	54.821
22.183	54.822
22.214	54.823
22.244	54.826
22.274	54.828
22.304	54.829
22.334	54.831
22.364	54.831
22.395	54.833
22.425	54.833
22.455	54.832
22.485	54.833
22.515	54.835
22.546	54.837
22.576	54.837
22.606	54.838
22.636	54.838
22.666	54.838
22.697	54.839
22.727	54.840
22.757	54.842
22.787	54.844
22.817	54.845
22.847	54.845
22.878	54.846
22.908	54.846
22.938	54.849
22.968	54.851
22.998	54.852
23.029	54.854
23.059	54.854
23.089	54.856
23.119	54.858
23.149	54.859
23.179	54.860
23.210	54.861
23.240	54.861
23.270	54.862
23.300	54.862
23.330	54.864
23.361	54.866
23.391	54.867
23.421	54.871
23.451	54.873
23.481	54.876
23.512	54.878
23.542	54.878
23.572	54.882
23.602	54.883
23.632	54.883
23.663	54.885
23.693	54.885
23.723	54.885
23.753	54.886
23.783	54.888
23.813	54.889
23.844	54.890
23.874	54.891
23.904	54.895
23.934	54.897
23.964	54.899
23.995	54.904
24.025	54.905
24.055	54.905
24.085	54.905
24.115	54.906
24.145	54.906
24.176	54.907
24.206	54.907
24.236	54.907
24.266	54.907
24.296	54.911
24.327	54.911
24.357	54.911
24.387	54.912
24.417	54.949
24.447	54.970
24.478	54.972
24.508	54.973
24.538	54.975
24.568	54.976
24.598	54.977
24.628	54.978
24.659	54.980
24.689	54.980
24.719	54.981
24.749	54.981
24.779	54.983
24.810	54.983
24.840	54.983
24.870	54.984
24.900	54.985
24.930	54.985
24.961	54.988
24.991	54.994
25.021	54.999
25.051	55.001
25.081	55.001
25.112	55.002
25.142	55.003
25.172	55.006
25.202	55.007
25.232	55.010
25.263	55.012
25.293	55.016
25.323	55.018
25.353	55.026
25.383	55.029
25.414	55.031
25.444	55.039
25.474	55.047
25.504	55.047
25.534	55.048
25.565	55.051
25.595	55.052
25.625	55.055
25.655	55.057
25.685	55.060
25.715	55.063
25.746	55.066
25.776	55.068
25.806	55.069
25.836	55.072
25.866	55.074
25.897	55.076
25.927	55.077
25.957	55.081
25.987	55.083
26.017	55.084
26.047	55.084
26.078	55.085
26.108	55.086
26.138	55.087
26.168	55.089
26.198	55.089
26.229	55.092
26.259	55.093
26.289	55.092
26.319	55.094
26.349	55.097
26.379	55.101
26.410	55.104
26.440	55.105
26.470	55.108
26.500	55.108
26.530	55.112
26.561	55.114
26.591	55.115
26.621	55.117
26.651	55.118
26.681	55.120
26.712	55.121
26.742	55.122
26.772	55.122
26.802	55.122
26.832	55.122
26.862	55.123
26.893	55.124
26.923	55.125
26.953	55.125
26.983	55.125
27.013	55.128
27.044	55.130
27.074	55.134
27.104	55.136
27.134	55.140
27.164	55.141
27.195	55.145
27.225	55.147
27.255	55.148
27.285	55.152
27.315	55.152
27.346	55.152
27.376	55.155
27.406	55.156
27.436	55.157
27.466	55.157
27.496	55.159
27.527	55.159
27.557	55.161
27.587	55.162
27.617	55.165
27.647	55.166
27.678	55.166
27.708	55.167
27.738	55.167
27.768	55.167
27.798	55.168
27.829	55.168
27.859	55.168
27.889	55.169
27.919	55.170
27.949	55.171
27.980	55.171
28.010	55.172
28.040	55.177
28.070	55.181
28.100	55.181
28.131	55.181
28.161	55.181
28.191	55.183
28.221	55.184
28.251	55.185
28.282	55.185
28.312	55.185
28.342	55.185
28.372	55.186
28.402	55.186
28.432	55.186
28.463	55.187
28.493	55.188
28.523	55.188
28.553	55.191
28.583	55.191
28.614	55.191
28.644	55.193
28.674	55.196
28.704	55.199
28.734	55.201
28.765	55.202
28.795	55.203
28.825	55.205
28.855	55.206
28.885	55.207
28.916	55.210
28.946	55.212
28.976	55.212
29.006	55.212
29.036	55.213
29.067	55.220
29.097	55.219
29.127	55.225
29.157	55.227
29.187	55.228
29.217	55.229
29.248	55.230
29.278	55.232
29.308	55.235
29.338	55.235
29.368	55.236
29.399	55.245
29.429	55.247
29.459	55.248
29.489	55.246
29.519	55.245
29.549	55.244
29.580	55.246
29.610	55.246
29.640	55.248
29.670	55.248
29.700	55.248
29.731	55.249
29.761	55.249
29.791	55.249
29.821	55.249
29.851	55.249
29.882	55.248
29.912	55.250
29.942	55.253
29.972	55.254
30.002	55.253
30.032	55.253
30.063	55.252
30.093	55.251
30.123	55.250
30.153	55.247
30.183	55.242
30.214	54.973
30.244	55.209
30.274	55.210
30.304	55.212
30.334	55.215
30.365	55.216
30.395	55.217
30.425	55.217
30.455	55.218
30.485	55.218
30.515	55.218
30.546	55.218
30.576	55.219
30.606	55.221
30.636	55.221
30.666	55.222
30.697	55.221
30.727	55.218
30.757	55.213
30.787	55.163
30.817	55.147
30.848	55.145
30.878	55.141
30.908	55.155
30.938	55.159
30.968	55.161
30.998	55.163
31.029	55.163
31.059	55.165
31.089	55.166
31.119	55.168
31.149	55.169
31.180	55.170
31.210	55.170
31.240	55.170
31.270	55.170
31.300	55.170
31.331	55.172
31.361	55.173
31.391	55.172
31.421	55.167
31.451	55.177
31.482	55.189
31.512	55.190
31.542	55.192
31.572	55.193
31.602	55.195
31.633	55.196
31.663	55.197
31.693	55.198
31.723	55.198
31.753	55.199
31.784	55.200
31.814	55.201
31.844	55.202
31.874	55.203
31.904	55.205
31.935	55.205
31.965	55.207
31.995	55.207
32.025	55.206
32.055	55.207
32.086	55.208
32.116	55.210
32.146	55.211
32.176	55.211
32.206	55.211
32.237	55.212
32.267	55.215
32.297	55.215
32.327	55.217
32.357	55.218
32.387	55.219
32.418	55.221
32.448	55.224
32.478	55.225
32.508	55.226
32.538	55.226
32.569	55.226
32.599	55.226
32.629	55.234
32.659	55.236
32.689	55.236
32.720	55.236
32.750	55.237
32.780	55.238
32.810	55.238
32.840	55.243
32.870	55.245
32.901	55.245
32.931	55.245
32.961	55.246
32.991	55.246
33.021	55.249
33.052	55.253
33.082	55.253
33.112	55.255
33.142	55.256
33.172	55.258
33.202	55.258
33.233	55.258
33.263	55.259
33.293	55.260
33.323	55.260
33.353	55.261
33.384	55.262
33.414	55.263
33.444	55.263
33.474	55.263
33.504	55.265
33.535	55.265
33.565	55.267
33.595	55.267
33.625	55.269
33.655	55.269
33.685	55.271
33.716	55.272
33.746	55.273
33.776	55.274
33.806	55.274
33.836	55.274
33.867	55.274
33.897	55.274
33.927	55.275
33.957	55.275
33.987	55.275
34.017	55.275
34.048	55.275
34.078	55.274
34.108	55.275
34.138	55.275
34.168	55.275
34.199	55.276
34.229	55.276
34.259	55.278
34.289	55.281
34.319	55.282
34.350	55.283
34.380	55.283
34.410	55.285
34.440	55.288
34.470	55.292
34.500	55.300
34.531	55.301
34.561	55.301
34.591	55.301
34.621	55.301
34.651	55.302
34.682	55.304
34.712	55.307
34.742	55.308
34.772	55.309
34.802	55.309
34.833	55.313
34.863	55.314
34.893	55.315
34.923	55.320
34.953	55.321
34.983	55.322
35.014	55.322
35.044	55.321
35.074	55.322
35.104	55.324
35.134	55.326
35.165	55.327
35.195	55.327
35.225	55.327
35.255	55.328
35.285	55.328
35.315	55.327
35.346	55.328
35.376	55.328
35.406	55.328
35.436	55.328
35.466	55.329
35.497	55.330
35.527	55.332
35.557	55.334
35.587	55.334
35.617	55.335
35.648	55.336
35.678	55.337
35.708	55.337
35.738	55.338
35.768	55.339
35.798	55.340
35.829	55.341
35.859	55.344
35.889	55.345
35.919	55.348
35.949	55.350
35.980	55.351
36.010	55.352
36.040	55.352
36.070	55.352
36.100	55.352
36.130	55.354
36.161	55.354
36.191	55.355
36.221	55.356
36.251	55.357
36.281	55.361
36.312	55.362
36.342	55.363
36.372	55.366
36.402	55.367
36.432	55.367
36.463	55.367
36.493	55.367
36.523	55.370
36.553	55.370
36.583	55.370
36.614	55.370
36.644	55.370
36.674	55.371
36.704	55.371
36.734	55.370
36.765	55.371
36.795	55.371
36.825	55.371
36.855	55.371
36.885	55.376
36.916	55.378
36.946	55.378
36.976	55.377
37.006	55.378
37.036	55.377
37.067	55.380
37.097	55.380
37.127	55.380
37.157	55.379
37.187	55.373
37.218	54.660
37.248	54.664
37.278	54.702
37.308	54.706
37.338	54.709
37.368	54.711
37.399	54.712
37.429	54.712
37.459	54.714
37.489	54.715
37.519	54.716
37.550	54.718
37.580	54.719
37.610	54.719
37.640	54.719
37.670	54.720
37.700	54.722
37.731	54.724
37.761	54.723
37.791	54.724
37.821	54.723
37.851	54.725
37.882	54.731
37.912	54.732
37.942	54.731
37.972	54.729
38.002	54.736
38.033	54.739
38.063	54.740
38.093	54.743
38.123	54.745
38.153	54.747
38.183	54.746
38.214	54.747
38.244	54.751
38.274	54.746
38.304	54.756
38.334	54.757
38.365	54.758
38.395	54.759
38.425	54.770
38.455	54.772
38.485	54.774
38.516	54.774
38.546	54.776
38.576	54.777
38.606	54.777
38.636	54.778
38.667	54.778
38.697	54.779
38.727	54.779
38.757	54.779
38.787	54.783
38.818	54.785
38.848	54.786
38.878	54.786
38.908	54.786
38.938	54.786
38.968	54.786
38.999	54.787
39.029	54.787
39.059	54.788
39.089	54.786
39.119	54.781
39.150	54.800
39.180	54.802
39.210	54.804
39.240	54.808
39.270	54.810
39.301	54.811
39.331	54.813
39.361	54.814
39.391	54.814
39.421	54.815
39.452	54.819
39.482	54.820
39.512	54.821
39.542	54.822
39.572	54.822
39.603	54.823
39.633	54.824
39.663	54.825
39.693	54.825
39.723	54.827
39.753	54.828
39.784	54.828
39.814	54.828
39.844	54.830
39.874	54.831
39.904	54.832
39.935	54.833
39.965	54.833
39.995	54.833
40.025	54.835
40.055	54.836
40.085	54.839
40.116	54.844
40.146	54.847
40.176	54.848
40.206	54.848
40.236	54.848
40.267	54.848
40.297	54.848
40.327	54.848
40.357	54.849
40.387	54.850
40.418	54.850
40.448	54.850
40.478	54.850
40.508	54.846
40.538	54.850
40.568	54.853
40.599	54.854
40.629	54.856
40.659	54.856
40.689	54.857
40.719	54.858
40.750	54.859
40.780	54.859
40.810	54.864
40.840	54.867
40.870	54.892
40.901	54.895
40.931	54.897
40.961	54.899
40.991	54.902
41.021	54.903
41.051	54.903
41.082	54.905
41.112	54.908
41.142	54.909
41.172	54.911
41.202	54.913
41.233	54.914
41.263	54.914
41.293	54.925
41.323	54.926
41.353	54.926
41.383	54.926
41.414	54.925
41.444	54.924
41.474	54.919
41.504	54.925
41.534	54.931
41.565	54.932
41.595	54.931
41.625	54.933
41.655	54.934
41.685	54.936
41.715	54.931
41.746	54.094
41.776	54.096
41.806	54.099
41.836	54.101
41.866	54.104
41.897	54.106
41.927	54.107
41.957	54.108
41.987	54.110
42.017	54.111
42.048	54.113
42.078	54.327
42.108	54.394
42.138	54.406
42.168	54.498
42.198	54.793
42.229	54.799
42.259	54.803
42.289	54.806
42.319	54.809
42.349	54.811
42.380	54.811
42.410	54.812
42.440	54.813
42.470	54.814
42.500	54.815
42.531	54.819
42.561	54.824
42.591	54.827
42.621	54.828
42.651	54.829
42.682	54.830
42.712	54.830
42.742	54.832
42.772	54.839
42.802	54.841
42.832	54.842
42.863	54.842
42.893	54.843
42.923	54.843
42.953	54.844
42.983	54.844
43.014	54.846
43.044	54.846
43.074	54.847
43.104	54.850
43.134	54.851
43.165	54.852
43.195	54.854
43.225	54.855
43.255	54.856
43.285	54.856
43.315	54.857
43.346	54.857
43.376	54.857
43.406	54.857
43.436	54.857
43.466	54.856
43.497	54.861
43.527	54.861
43.557	54.862
43.587	54.864
43.617	54.865
43.648	54.866
43.678	54.867
43.708	54.869
43.738	54.869
43.768	54.870
43.798	54.870
43.829	54.871
43.859	54.871
43.889	54.871
43.919	54.872
43.949	54.872
43.980	54.875
44.010	54.876
44.040	54.877
44.070	54.877
44.100	54.877
44.130	54.877
44.161	54.878
44.191	54.881
44.221	54.882
44.251	54.883
44.281	54.884
44.312	54.880
44.342	54.893
44.372	54.894
44.402	54.896
44.432	54.901
44.463	54.903
44.493	54.903
44.523	54.903
44.553	54.903
44.583	54.904
44.613	54.904
44.644	54.905
44.674	54.905
44.704	54.905
44.734	54.905
44.764	54.906
44.795	54.907
44.825	54.908
44.855	54.909
44.885	54.910
44.915	54.910
44.945	54.910
44.976	54.911
45.006	54.913
45.036	54.914
45.066	54.914
45.096	54.915
45.127	54.918
45.157	54.920
45.187	54.920
45.217	54.921
45.247	54.923
45.278	54.924
45.308	54.926
45.338	54.929
45.368	54.931
45.398	54.931
45.428	54.932
45.459	54.933
45.489	54.936
45.519	54.937
45.549	54.938
45.579	54.938
45.610	54.938
45.640	54.939
45.670	54.941
45.700	54.941
45.730	54.941
45.761	54.942
45.791	54.942
45.821	54.942
45.851	54.943
45.881	54.944
45.911	54.944
45.942	54.945
45.972	54.945
46.002	54.945
46.032	54.945
46.062	54.945
46.093	54.946
46.123	54.948
46.153	54.948
46.183	54.948
46.213	54.948
46.244	54.949
46.274	54.949
46.304	54.949
46.334	54.951
46.364	54.953
46.394	54.953
46.425	54.954
46.455	54.955
46.485	54.955
46.515	54.955
46.545	54.959
46.576	54.960
46.606	54.962
46.636	54.962
46.666	54.963
46.696	54.963
46.727	54.964
46.757	54.964
46.787	54.966
46.817	54.966
46.847	54.972
46.878	54.975
46.908	54.977
46.938	54.978
46.968	54.980
46.998	54.981
47.029	54.982
47.059	54.983
47.089	54.984
47.119	54.986
47.149	54.987
47.179	54.988
47.210	54.990
47.240	54.991
47.270	54.991
47.300	54.991
47.330	54.994
47.361	54.995
47.391	54.996
47.421	54.996
47.451	54.996
47.481	54.997
47.512	54.997
47.542	54.997
47.572	54.997
47.602	54.997
47.632	54.997
47.663	54.997
47.693	54.997
47.723	54.997
47.753	54.997
47.783	54.997
47.814	54.997
47.844	54.998
47.874	54.999
47.904	54.998
47.934	54.999
47.965	55.000
47.995	55.000
48.025	55.000
48.055	55.000
48.085	55.002
48.115	55.002
48.146	55.002
48.176	55.003
48.206	55.004
48.236	55.004
48.266	55.004
48.297	55.004
48.327	55.005
48.357	55.005
48.387	55.005
48.417	55.007
48.448	55.007
48.478	55.006
48.508	55.012
48.538	55.013
48.568	55.013
48.599	55.013
48.629	55.012
48.659	55.012
48.689	55.013
48.719	55.014
48.750	55.016
48.780	55.018
48.810	55.019
48.840	55.020
48.870	55.021
48.900	55.022
48.931	55.022
48.961	55.022
48.991	55.025
49.021	55.025
49.051	55.026
49.082	55.027
49.112	55.029
49.142	55.029
49.172	55.032
49.202	55.033
49.232	55.033
49.263	55.033
49.293	55.033
49.323	55.033
49.353	55.032
49.383	55.028
49.414	55.031
49.444	55.032
49.474	55.030
49.504	55.036
49.534	55.039
49.564	55.041
49.595	55.042
49.625	55.043
49.655	55.044
49.685	55.045
49.715	55.045
49.746	55.046
49.776	55.046
49.806	55.048
49.836	55.048
49.866	55.048
49.896	55.048
49.927	55.050
49.957	55.051
49.987	55.051
50.017	55.051
50.047	55.051
50.078	55.051
50.108	55.052
50.138	55.052
50.168	55.052
50.198	55.053
50.229	55.053
50.259	55.053
50.289	55.053
50.319	55.053
50.349	55.053
50.379	55.053
50.410	55.053
50.440	55.054
50.470	55.054
50.500	55.054
50.530	55.056
50.561	55.060
50.591	55.061
50.621	55.061
50.651	55.061
50.681	55.062
50.711	55.062
50.742	55.063
50.772	55.063
50.802	55.065
50.832	55.065
50.862	55.065
50.893	55.065
50.923	55.065
50.953	55.072
50.983	55.072
51.013	55.077
51.044	55.078
51.074	55.078
51.104	55.077
51.134	55.080
51.164	55.082
51.194	55.083
51.225	55.083
51.255	55.084
51.285	55.086
51.315	55.086
51.345	55.087
51.376	55.088
51.406	55.089
51.436	55.089
51.466	55.092
51.496	55.098
51.526	55.101
51.557	55.102
51.587	55.103
51.617	55.103
51.647	55.104
51.677	55.105
51.708	55.106
51.738	55.106
51.768	55.106
51.798	55.106
51.828	55.107
51.859	55.107
51.889	55.108
51.919	55.110
51.949	55.109
51.979	55.111
52.009	55.111
52.040	55.111
52.070	55.112
52.100	55.113
52.130	55.113
52.160	55.113
52.191	55.112
52.221	55.113
52.251	55.116
52.281	55.117
52.311	55.117
52.341	55.118
52.372	55.118
52.402	55.119
52.432	55.120
52.462	55.120
52.492	55.122
52.523	55.122
52.553	55.122
52.583	55.123
52.613	55.123
52.643	55.123
52.674	55.125
52.704	55.127
52.734	55.127
52.764	55.128
52.794	55.129
52.824	55.130
52.855	55.130
52.885	55.130
52.915	55.130
52.945	55.131
52.975	55.132
53.006	55.133
53.036	55.133
53.066	55.133
53.096	55.134
53.126	55.135
53.156	55.134
53.187	55.135
53.217	55.135
53.247	55.134
53.277	55.141
53.307	55.146
53.338	55.147
53.368	55.148
53.398	55.148
53.428	55.148
53.458	55.149
53.488	55.149
53.519	55.151
53.549	55.151
53.579	55.152
53.609	55.152
53.639	55.152
53.670	55.152
53.700	55.151
53.730	55.155
53.760	55.156
53.790	55.156
53.820	55.156
53.851	55.156
53.881	55.156
53.911	55.157
53.941	55.156
53.971	55.158
54.002	55.159
54.032	55.159
54.062	55.160
54.092	55.161
54.122	55.162
54.153	55.164
54.183	55.165
54.213	55.165
54.243	55.166
54.273	55.166
54.304	55.167
54.334	55.168
54.364	55.170
54.394	55.173
54.424	55.173
54.455	55.174
54.485	55.174
54.515	55.174
54.545	55.175
54.575	55.178
54.605	55.180
54.636	55.182
54.666	55.182
54.696	55.182
54.726	55.183
54.757	55.183
54.787	55.184
54.817	55.183
54.847	55.184
54.877	55.185
54.907	55.185
54.938	55.186
54.968	55.189
54.998	55.191
55.028	55.191
55.058	55.192
55.089	55.194
55.119	55.195
55.149	55.194
55.179	55.195
55.209	55.196
55.240	55.196
55.270	55.196
55.300	55.197
55.330	55.198
55.360	55.199
55.391	55.199
55.421	55.200
55.451	55.200
55.481	55.201
55.511	55.201
55.542	55.201
55.572	55.202
55.602	55.201
55.632	55.202
55.662	55.202
55.693	55.202
55.723	55.202
55.753	55.202
55.783	55.203
55.813	55.203
55.844	55.204
55.874	55.205
55.904	55.206
55.934	55.207
55.964	55.207
55.995	55.207
56.025	55.208
56.055	55.209
56.085	55.209
56.115	55.212
56.146	55.213
56.176	55.213
56.206	55.213
56.236	55.214
56.266	55.216
56.296	55.216
56.327	55.218
56.357	55.218
56.387	55.218
56.417	55.219
56.447	55.219
56.478	55.219
56.508	55.220
56.538	55.220
56.568	55.220
56.598	55.221
56.628	55.221
56.659	55.221
56.689	55.221
56.719	55.221
56.749	55.221
56.779	55.222
56.810	55.222
56.840	55.222
56.870	55.225
56.900	55.226
56.930	55.226
56.961	55.227
56.991	55.227
57.021	55.228
57.051	55.229
57.081	55.230
57.111	55.231
57.142	55.232
57.172	55.232
57.202	55.233
57.232	55.234
57.262	55.235
57.293	55.235
57.323	55.236
57.353	55.236
57.383	55.236
57.413	55.237
57.443	55.238
57.474	55.238
57.504	55.238
57.534	55.240
57.564	55.240
57.594	55.241
57.625	55.241
57.655	55.241
57.685	55.242
57.715	55.243
57.745	55.243
57.776	55.243
57.806	55.243
57.836	55.243
57.866	55.243
57.896	55.244
57.926	55.244
57.957	55.244
57.987	55.250
58.017	55.252
58.047	55.252
58.077	55.254
58.108	55.254
58.138	55.255
58.168	55.255
58.198	55.255
58.228	55.254
58.258	55.255
58.289	55.256
58.319	55.256
58.349	55.255
58.379	55.255
58.409	55.255
58.440	55.249
58.470	55.246
58.500	55.252
58.530	55.260
58.560	55.261
58.590	55.261
58.621	55.262
58.651	55.263
58.681	55.262
58.711	55.260
58.741	55.258
58.772	55.266
58.802	55.268
58.832	55.269
58.862	55.270
58.892	55.270
58.923	55.271
58.953	55.271
58.983	55.272
59.013	55.272
59.043	55.273
59.073	55.273
59.104	55.273
59.134	55.273
59.164	55.275
59.194	55.275
59.224	55.275
59.255	55.275
59.285	55.275
59.315	55.275
59.345	55.276
59.375	55.276
59.406	55.278
59.436	55.279
59.466	55.280
59.496	55.280
59.526	55.281
59.556	55.281
59.587	55.281
59.617	55.282
59.647	55.282
59.677	55.283
59.707	55.284
59.738	55.285
59.768	55.284
59.798	55.288
59.828	55.288
59.858	55.288
59.888	55.289
59.919	55.290
59.949	55.290
59.979	55.290
60.009	55.290
60.039	55.290
60.070	55.290
60.100	55.290
60.130	55.291
60.160	55.291
60.190	55.291
60.220	55.291
60.251	55.290
60.281	55.291
60.311	55.291
60.341	55.291
60.371	55.292
60.402	55.295
60.432	55.295
60.462	55.295
60.492	55.295
60.522	55.295
60.553	55.295
60.583	55.294
60.613	55.289
60.643	55.293
60.673	55.296
60.703	55.299
60.734	55.301
60.764	55.304
60.794	55.304
60.824	55.305
60.854	55.305
60.885	55.307
60.915	55.308
60.945	55.308
60.975	55.308
61.005	55.309
61.036	55.309
61.066	55.309
61.096	55.310
61.126	55.310
61.156	55.311
61.186	55.311
61.217	55.313
61.247	55.313
61.277	55.314
61.307	55.315
61.337	55.316
61.368	55.316
61.398	55.317
61.428	55.317
61.458	55.317
61.488	55.317
61.518	55.319
61.549	55.319
61.579	55.319
61.609	55.322
61.639	55.322
61.669	55.322
61.700	55.322
61.730	55.323
61.760	55.323
61.790	55.323
61.820	55.323
61.850	55.323
61.881	55.324
61.911	55.324
61.941	55.325
61.971	55.328
62.001	55.335
62.032	55.335
62.062	55.336
62.092	55.336
62.122	55.336
62.152	55.339
62.182	55.340
62.213	55.340
62.243	55.340
62.273	55.340
62.303	55.342
62.333	55.342
62.364	55.343
62.394	55.343
62.424	55.343
62.454	55.343
62.484	55.344
62.514	55.345
62.545	55.347
62.575	55.347
62.605	55.348
62.635	55.348
62.665	55.348
62.696	55.348
62.726	55.348
62.756	55.349
62.786	55.349
62.816	55.350
62.846	55.350
62.877	55.350
62.907	55.350
62.937	55.351
62.967	55.351
62.997	55.351
63.028	55.351
63.058	55.351
63.088	55.352
63.118	55.352
63.148	55.352
63.178	55.352
63.209	55.353
63.239	55.353
63.269	55.353
63.299	55.354
63.329	55.358
63.360	55.359
63.390	55.359
63.420	55.360
63.450	55.360
63.480	55.361
63.511	55.361
63.541	55.361
63.571	55.361
63.601	55.360
63.631	55.360
63.662	55.361
63.692	55.361
63.722	55.362
63.752	55.362
63.782	55.363
63.813	55.363
63.843	55.363
63.873	55.363
63.903	55.363
63.933	55.364
63.964	55.364
63.994	55.363
64.024	55.362
64.054	55.361
64.084	55.357
64.115	55.356
64.145	55.359
64.175	55.361
64.205	55.364
64.235	55.365
64.265	55.366
64.296	55.366
64.326	55.367
64.356	55.368
64.386	55.369
64.416	55.369
64.447	55.369
64.477	55.369
64.507	55.369
64.537	55.370
64.567	55.369
64.598	55.368
64.628	55.366
64.658	55.364
64.688	55.361
64.718	55.358
64.749	54.992
64.779	54.993
64.809	54.993
64.839	54.994
64.869	54.994
64.900	54.995
64.930	54.996
64.960	54.997
64.990	54.997
65.020	54.998
65.051	54.998
65.081	54.999
65.111	54.999
65.141	54.999
65.171	55.000
65.202	55.000
65.232	55.000
65.262	55.000
65.292	55.000
65.322	55.001
65.353	55.001
65.383	55.001
65.413	55.001
65.443	55.001
65.473	55.001
65.503	55.001
65.534	55.001
65.564	55.001
65.594	55.004
65.624	55.004
65.654	55.006
65.685	55.011
65.715	55.013
65.745	55.014
65.775	55.015
65.805	55.016
65.836	55.016
65.866	55.018
65.896	55.021
65.926	55.022
65.956	55.022
65.987	55.024
66.017	55.024
66.047	55.025
66.077	55.026
66.107	55.027
66.137	55.027
66.168	55.027
66.198	55.028
66.228	55.028
66.258	55.029
66.288	55.029
66.319	55.029
66.349	55.030
66.379	55.030
66.409	55.030
66.439	55.030
66.470	55.030
66.500	55.030
66.530	55.031
66.560	55.031
66.590	55.032
66.620	55.033
66.651	55.033
66.681	55.034
66.711	55.034
66.741	55.035
66.771	55.035
66.802	55.035
66.832	55.036
66.862	55.036
66.892	55.037
66.922	55.037
66.953	55.037
66.983	55.037
67.013	55.038
67.043	55.038
67.073	55.038
67.103	55.039
67.134	55.040
67.164	55.041
67.194	55.041
67.224	55.041
67.254	55.042
67.285	55.042
67.315	55.042
67.345	55.043
67.375	55.044
67.405	55.046
67.435	55.046
67.466	55.047
67.496	55.048
67.526	55.049
67.556	55.049
67.586	55.050
67.617	55.050
67.647	55.050
67.677	55.050
67.707	55.050
67.737	55.052
67.768	55.053
67.798	55.053
67.828	55.053
67.858	55.053
67.888	55.054
67.918	55.054
67.949	55.053
67.979	55.054
68.009	55.055
68.039	55.054
68.069	55.053
68.100	55.052
68.130	54.934
68.160	54.613
68.190	54.615
68.220	54.616
68.251	54.617
68.281	54.617
68.311	54.618
68.341	54.623
68.371	54.625
68.401	54.627
68.432	54.628
68.462	54.629
68.492	54.629
68.522	54.630
68.552	54.630
68.583	54.633
68.613	54.637
68.643	54.638
68.673	54.638
68.703	54.639
68.733	54.639
68.764	54.640
68.794	54.641
68.824	54.641
68.854	54.642
68.884	54.643
68.915	54.644
68.945	54.647
68.975	54.649
69.005	54.650
69.035	54.650
69.065	54.651
69.096	54.652
69.126	54.653
69.156	54.654
69.186	54.656
69.216	54.658
69.247	54.658
69.277	54.659
69.307	54.660
69.337	54.660
69.367	54.663
69.397	54.663
69.428	54.663
69.458	54.665
69.488	54.666
69.518	54.667
69.548	54.669
69.579	54.669
69.609	54.670
69.639	54.670
69.669	54.672
69.699	54.672
69.729	54.673
69.760	54.673
69.790	54.675
69.820	54.677
69.850	54.680
69.880	54.681
69.911	54.681
69.941	54.682
69.971	54.682
70.001	54.682
70.031	54.683
70.062	54.684
70.092	54.685
70.122	54.685
70.152	54.686
70.182	54.686
70.212	54.686
70.243	54.687
70.273	54.687
70.303	54.687
70.333	54.688
70.363	54.688
70.394	54.689
70.424	54.690
70.454	54.702
70.484	54.709
70.514	54.710
70.544	54.711
70.575	54.712
70.605	54.713
70.635	54.713
70.665	54.713
70.695	54.714
70.726	54.717
70.756	54.718
70.786	54.717
70.816	54.717
70.846	54.716
70.877	54.716
70.907	54.716
70.937	54.718
70.967	54.720
70.997	54.721
71.027	54.722
71.058	54.723
71.088	54.726
71.118	54.728
71.148	54.729
71.178	54.730
71.209	54.731
71.239	54.732
71.269	54.732
71.299	54.733
71.329	54.733
71.359	54.734
71.390	54.735
71.420	54.735
71.450	54.736
71.480	54.739
71.510	54.740
71.541	54.741
71.571	54.744
71.601	54.744
71.631	54.745
71.661	54.745
71.691	54.746
71.722	54.746
71.752	54.747
71.782	54.748
71.812	54.749
71.842	54.749
71.873	54.750
71.903	54.750
71.933	54.755
71.963	54.755
71.993	54.756
72.024	54.757
72.054	54.760
72.084	54.761
72.114	54.762
72.144	54.762
72.174	54.763
72.205	54.763
72.235	54.764
72.265	54.765
72.295	54.767
72.325	54.767
72.356	54.768
72.386	54.769
72.416	54.769
72.446	54.770
72.476	54.770
72.507	54.770
72.537	54.772
72.567	54.773
72.597	54.773
72.627	54.774
72.658	54.774
72.688	54.775
72.718	54.776
72.748	54.776
72.778	54.776
72.809	54.777
72.839	54.777
72.869	54.778
72.899	54.778
72.929	54.778
72.960	54.778
72.990	54.778
73.020	54.779
73.050	54.779
73.080	54.780
73.111	54.780
73.141	54.781
73.171	54.781
73.201	54.782
73.231	54.783
73.262	54.783
73.292	54.784
73.322	54.784
73.352	54.784
73.382	54.786
73.412	54.787
73.443	54.787
73.473	54.788
73.503	54.788
73.533	54.788
73.563	54.789
73.594	54.790
73.624	54.790
73.654	54.790
73.684	54.791
73.714	54.792
73.745	54.792
73.775	54.792
73.805	54.793
73.835	54.794
73.865	54.794
73.896	54.794
73.926	54.795
73.956	54.796
73.986	54.796
74.016	54.796
74.047	54.797
74.077	54.798
74.107	54.798
74.137	54.799
74.167	54.799
74.198	54.799
74.228	54.799
74.258	54.800
74.288	54.801
74.318	54.802
74.349	54.802
74.379	54.803
74.409	54.803
74.439	54.802
74.469	54.805
74.499	54.805
74.530	54.805
74.560	54.805
74.590	54.806
74.620	54.806
74.650	54.806
74.681	54.806
74.711	54.812
74.741	54.819
74.771	54.822
74.801	54.824
74.832	54.824
74.862	54.827
74.892	54.828
74.922	54.829
74.952	54.829
74.983	54.831
75.013	54.833
75.043	54.834
75.073	54.834
75.103	54.835
75.133	54.835
75.164	54.836
75.194	54.836
75.224	54.839
75.254	54.841
75.284	54.842
75.315	54.842
75.345	54.842
75.375	54.842
75.405	54.839
75.435	54.841
75.465	54.845
75.496	54.845
75.526	54.846
75.556	54.847
75.586	54.848
75.616	54.848
75.647	54.848
75.677	54.848
75.707	54.849
75.737	54.850
75.767	54.850
75.797	54.851
75.828	54.854
75.858	54.861
75.888	54.863
75.918	54.864
75.948	54.869
75.979	54.872
76.009	54.873
76.039	54.875
76.069	54.875
76.099	54.877
76.129	54.879
76.160	54.884
76.190	54.885
76.220	54.885
76.250	54.886
76.280	54.888
76.311	54.889
76.341	54.889
76.371	54.891
76.401	54.913
76.431	54.914
76.462	54.914
76.492	54.915
76.522	54.916
76.552	54.917
76.582	54.919
76.612	54.920
76.643	54.920
76.673	54.921
76.703	54.921
76.733	54.923
76.763	54.926
76.794	54.926
76.824	54.927
76.854	54.928
76.884	54.930
76.914	54.931
76.944	54.932
76.975	54.933
77.005	54.933
77.035	54.934
77.065	54.934
77.095	54.934
77.126	54.936
77.156	54.936
77.186	54.937
77.216	54.937
77.246	54.938
77.277	54.938
77.307	54.939
77.337	54.940
77.367	54.940
77.397	54.940
77.427	54.940
77.458	54.940
77.488	54.939
77.518	54.940
77.548	54.947
77.578	54.948
77.609	54.949
77.639	54.952
77.669	54.957
77.699	54.958
77.729	54.958
77.759	54.960
77.790	54.965
77.820	54.966
77.850	54.967
77.880	54.967
77.910	54.967
77.941	54.970
77.971	54.971
78.001	54.971
78.031	54.972
78.061	54.972
78.092	54.973
78.122	54.973
78.152	54.974
78.182	54.974
78.212	54.975
78.243	54.975
78.273	54.976
78.303	54.976
78.333	54.977
78.363	54.977
78.394	54.978
78.424	54.978
78.454	54.979
78.484	54.979
78.514	54.980
78.545	54.981
78.575	54.981
78.605	54.982
78.635	54.982
78.665	54.982
78.696	54.982
78.726	54.983
78.756	54.983
78.786	54.983
78.816	54.985
78.847	54.986
78.877	54.987
78.907	54.987
78.937	54.988
78.967	54.989
78.998	54.989
79.028	54.990
79.058	54.990
79.088	54.990
79.118	54.991
79.148	54.991
79.179	54.992
79.209	54.993
79.239	54.994
79.269	54.995
79.299	54.995
79.330	54.995
79.360	54.999
79.390	55.000
79.420	55.000
79.450	55.001
79.481	55.001
79.511	55.003
79.541	55.004
79.571	55.005
79.601	55.006
79.632	55.006
79.662	55.009
79.692	55.010
79.722	55.011
79.752	55.011
79.782	55.012
79.813	55.012
79.843	55.012
79.873	55.013
79.903	55.013
79.933	55.013
79.964	55.014
79.994	55.014
80.024	55.015
80.054	55.015
80.084	55.016
80.115	55.016
80.145	55.016
80.175	55.016
80.205	55.016
80.235	55.016
80.266	55.016
80.296	55.015
80.326	55.017
80.356	55.018
80.386	55.018
80.416	55.018
80.447	55.018
80.477	55.019
80.507	55.019
80.537	55.019
80.567	55.019
80.598	55.020
80.628	55.020
80.658	55.020
80.688	55.020
80.718	55.021
80.748	55.021
80.779	55.021
80.809	55.020
80.839	55.020
80.869	55.021
80.899	55.019
80.930	55.019
80.960	55.018
80.990	55.020
81.020	55.019
81.050	55.017
81.080	55.016
81.111	55.016
81.141	55.016
81.171	55.016
81.201	55.016
81.231	55.016
81.262	55.016
81.292	55.017
81.322	55.017
81.352	55.018
81.382	55.022
81.413	55.022
81.443	55.023
81.473	55.023
81.503	55.023
81.533	55.023
81.563	55.024
81.594	55.025
81.624	55.025
81.654	55.024
81.684	55.028
81.714	55.027
81.745	55.028
81.775	55.032
81.805	55.032
81.835	55.033
81.865	55.033
81.896	55.034
81.926	55.034
81.956	55.034
81.986	55.034
82.016	55.034
82.046	55.034
82.077	55.030
82.107	55.032
82.137	55.031
82.167	55.031
82.197	55.032
82.228	55.034
82.258	55.034
82.288	55.034
82.318	55.035
82.348	55.035
82.378	55.035
82.409	55.035
82.439	55.037
82.469	55.038
82.499	55.038
82.529	55.039
82.560	55.039
82.590	55.040
82.620	55.041
82.650	55.041
82.680	55.038
82.710	55.041
82.741	55.031
82.771	55.032
82.801	55.008
82.831	55.010
82.861	55.012
82.892	55.013
82.922	55.014
82.952	55.014
82.982	55.015
83.012	55.015
83.043	55.016
83.073	55.016
83.103	55.017
83.133	55.017
83.163	55.047
83.193	55.058
83.224	55.058
83.254	55.057
83.284	55.059
83.314	55.059
83.344	55.059
83.375	55.060
83.405	55.062
83.435	55.060
83.465	55.056
83.495	55.062
83.525	55.062
83.556	55.062
83.586	55.062
83.616	55.061
83.646	55.061
83.676	55.061
83.707	55.061
83.737	55.062
83.767	55.062
83.797	55.062
83.827	55.055
83.858	55.051
83.888	55.040
83.918	55.034
83.948	55.036
83.978	55.058
84.008	55.060
84.039	55.062
84.069	55.063
84.099	55.063
84.129	55.064
84.159	55.065
84.190	55.066
84.220	55.066
84.250	55.066
84.280	55.067
84.310	55.070
84.340	55.072
84.371	55.074
84.401	55.074
84.431	55.075
84.461	55.075
84.491	55.076
84.522	55.076
84.552	55.077
84.582	55.077
84.612	55.078
84.642	55.079
84.673	55.080
84.703	55.080
84.733	55.081
84.763	55.081
84.793	55.083
84.823	55.084
84.854	55.085
84.884	55.085
84.914	55.086
84.944	55.087
84.974	55.087
85.005	55.088
85.035	55.089
85.065	55.090
85.095	55.090
85.125	55.091
85.155	55.092
85.186	55.094
85.216	55.094
85.246	55.096
85.276	55.096
85.306	55.097
85.337	55.097
85.367	55.098
85.397	55.101
85.427	55.103
85.457	55.103
85.488	55.104
85.518	55.104
85.548	55.105
85.578	55.105
85.608	55.105
85.638	55.106
85.669	55.107
85.699	55.107
85.729	55.107
85.759	55.108
85.789	55.109
85.820	55.110
85.850	55.110
85.880	55.111
85.910	55.113
85.940	55.113
85.970	55.115
86.001	55.118
86.031	55.118
86.061	55.119
86.091	55.120
86.121	55.121
86.152	55.122
86.182	55.122
86.212	55.122
86.242	55.123
86.272	55.123
86.302	55.123
86.333	55.124
86.363	55.124
86.393	55.125
86.423	55.126
86.453	55.126
86.484	55.126
86.514	55.127
86.544	55.145
86.574	55.147
86.604	55.146
86.634	55.147
86.665	55.147
86.695	55.151
86.725	55.152
86.755	55.151
86.785	55.154
86.816	55.154
86.846	55.156
86.876	55.162
86.906	55.164
86.936	55.165
86.967	55.165
86.997	55.165
87.027	55.168
87.057	55.167
87.087	55.170
87.118	55.172
87.148	55.171
87.178	55.172
87.208	55.172
87.238	55.174
87.268	55.175
87.299	55.175
87.329	55.177
87.359	55.177
87.389	55.178
87.419	55.178
87.450	55.181
87.480	55.181
87.510	55.181
87.540	55.182
87.570	55.182
87.601	55.184
87.631	55.184
87.661	55.184
87.691	55.186
87.721	55.186
87.752	55.186
87.782	55.186
87.812	55.186
87.842	55.188
87.872	55.187
87.903	55.189
87.933	55.189
87.963	55.189
87.993	55.191
88.023	55.191
88.054	55.191
88.084	55.192
88.114	55.192
88.144	55.192
88.174	55.193
88.205	55.193
88.235	55.193
88.265	55.195
88.295	55.194
88.325	55.194
88.356	55.195
88.386	55.195
88.416	55.194
88.446	55.196
88.476	55.195
88.506	55.195
88.537	55.198
88.567	55.199
88.597	55.200
88.627	55.200
88.657	55.200
88.688	55.201
88.718	55.202
88.748	55.201
88.778	55.201
88.808	55.202
88.839	55.203
88.869	55.203
88.899	55.203
88.929	55.204
88.959	55.203
88.990	55.204
89.020	55.204
89.050	55.204
89.080	55.204
89.110	55.203
89.141	55.203
89.171	55.204
89.201	55.206
89.231	55.206
89.261	55.208
89.292	55.231
89.322	55.232
89.352	55.232
89.382	55.232
89.412	55.234
89.442	55.234
89.473	55.236
89.503	55.237
89.533	55.239
89.563	55.239
89.593	55.239
89.624	55.241
89.654	55.241
89.684	55.242
89.714	55.242
89.744	55.242
89.774	55.244
89.805	55.244
89.835	55.245
89.865	55.247
89.895	55.246
89.925	55.247
89.956	55.247
89.986	55.248
90.016	55.249
90.046	55.248
90.076	55.249
90.107	55.248
90.137	55.249
90.167	55.249
90.197	55.250
90.227	55.250
90.257	55.250
90.288	55.250
90.318	55.251
90.348	55.250
90.378	55.251
90.408	55.253
90.439	55.253
90.469	55.253
90.499	55.253
90.529	55.253
90.559	55.254
90.589	55.255
90.620	55.255
90.650	55.255
90.680	55.255
90.710	55.256
90.740	55.256
90.771	55.256
90.801	55.256
90.831	55.257
90.861	55.256
90.891	55.256
90.922	55.257
90.952	55.258
90.982	55.257
91.012	55.261
91.042	55.268
91.072	55.269
91.103	55.269
91.133	55.270
91.163	55.270
91.193	55.271
91.223	55.270
91.254	55.271
91.284	55.272
91.314	55.271
91.344	55.272
91.374	55.272
91.404	55.272
91.435	55.273
91.465	55.274
91.495	55.275
91.525	55.292
91.555	55.295
91.586	55.296
91.616	55.297
91.646	55.298
91.676	55.297
91.706	55.297
91.736	55.299
91.767	55.299
91.797	55.299
91.827	55.300
91.857	55.300
91.887	55.301
91.918	55.301
91.948	55.303
91.978	55.302
92.008	55.303
92.038	55.304
92.068	55.304
92.099	55.306
92.129	55.307
92.159	55.306
92.189	55.307
92.219	55.309
92.250	55.310
92.280	55.309
92.310	55.312
92.340	55.312
92.370	55.312
92.401	55.311
92.431	55.313
92.461	55.312
92.491	55.313
92.521	55.312
92.551	55.313
92.582	55.313
92.612	55.297
92.642	55.293
92.672	55.294
92.702	55.294
92.732	55.294
92.763	55.294
92.793	55.295
92.823	55.295
92.853	55.295
92.883	55.296
92.914	55.296
92.944	55.299
92.974	55.300
93.004	55.301
93.034	55.301
93.064	55.302
93.095	55.303
93.125	55.304
93.155	55.305
93.185	55.307
93.215	55.308
93.246	55.308
93.276	55.308
93.306	55.308
93.336	55.308
93.366	55.309
93.397	55.309
93.427	55.309
93.457	55.309
93.487	55.310
93.517	55.310
93.548	55.310
93.578	55.310
93.608	55.311
93.638	55.311
93.668	55.311
93.698	55.311
93.729	55.311
93.759	55.311
93.789	55.312
93.819	55.313
93.849	55.313
93.880	55.314
93.910	55.314
93.940	55.314
93.970	55.315
94.000	55.315
94.030	55.315
94.061	55.316
94.091	55.316
94.121	55.316
94.151	55.316
94.181	55.317
94.212	55.317
94.242	55.317
94.272	55.317
94.302	55.318
94.332	55.318
94.362	55.318
94.393	55.319
94.423	55.320
94.453	55.323
94.483	55.323
94.513	55.324
94.544	55.325
94.574	55.325
94.604	55.325
94.634	55.326
94.664	55.326
94.694	55.326
94.725	55.326
94.755	55.327
94.785	55.328
94.815	55.328
94.845	55.329
94.876	55.330
94.906	55.330
94.936	55.331
94.966	55.332
94.996	55.333
95.027	55.334
95.057	55.334
95.087	55.335
95.117	55.335
95.147	55.335
95.177	55.336
95.208	55.339
95.238	55.340
95.268	55.342
95.298	55.342
95.328	55.343
95.359	55.342
95.389	55.343
95.419	55.343
95.449	55.344
95.479	55.344
95.509	55.345
95.540	55.346
95.570	55.346
95.600	55.347
95.630	55.347
95.660	55.348
95.691	55.349
95.721	55.350
95.751	55.350
95.781	55.350
95.811	55.350
95.841	55.350
95.872	55.351
95.902	55.351
95.932	55.351
95.962	55.352
95.992	55.352
96.023	55.352
96.053	55.352
96.083	55.352
96.113	55.353
96.143	55.353
96.174	55.353
96.204	55.353
96.234	55.354
96.264	55.354
96.294	55.354
96.325	55.354
96.355	55.355
96.385	55.355
96.415	55.355
96.445	55.356
96.476	55.356
96.506	55.356
96.536	55.357
96.566	55.357
96.596	55.357
96.627	55.358
96.657	55.358
96.687	55.358
96.717	55.358
96.747	55.359
96.777	55.359
96.808	55.361
96.838	55.361
96.868	55.362
96.898	55.362
96.928	55.362
96.959	55.363
96.989	55.363
97.019	55.363
97.049	55.364
97.079	55.364
97.110	55.364
97.140	55.365
97.170	55.365
97.200	55.365
97.230	55.365
97.261	55.366
97.291	55.366
97.321	55.367
97.351	55.367
97.381	55.368
97.412	55.369
97.442	55.370
97.472	55.370
97.502	55.373
97.532	55.373
97.563	55.374
97.593	55.374
97.623	55.374
97.653	55.375
97.683	55.375
97.713	55.375
97.744	55.376
97.774	55.376
97.804	55.377
97.834	55.379
97.864	55.379
97.895	55.380
97.925	55.380
97.955	55.381
97.985	55.381
98.015	55.381
98.046	55.384
98.076	55.384
98.106	55.385
98.136	55.385
98.166	55.386
98.197	55.386
98.227	55.386
98.257	55.386
98.287	55.386
98.317	55.386
98.348	55.387
98.378	55.388
98.408	55.389
98.438	55.390
98.468	55.390
98.499	55.391
98.529	55.393
98.559	55.394
98.589	55.395
98.619	55.395
98.649	55.396
98.680	55.397
98.710	55.397
98.740	55.399
98.770	55.399
98.800	55.400
98.831	55.400
98.861	55.401
98.891	55.402
98.921	55.403
98.951	55.403
98.982	55.404
99.012	55.405
99.042	55.406
99.072	55.406
99.102	55.407
99.133	55.407
99.163	55.407
99.193	55.407
99.223	55.409
99.253	55.409
99.284	55.412
99.314	55.413
99.344	55.413
99.374	55.414
99.404	55.415
99.434	55.415
99.465	55.415
99.495	55.417
99.525	55.420
99.555	55.420
99.585	55.421
99.616	55.422
99.646	55.423
99.676	55.423
99.706	55.425
99.736	55.426
99.766	55.427
99.797	55.428
99.827	55.428
99.857	55.428
99.887	55.428
99.917	55.429
99.948	55.429
99.978	55.429
100.008	55.429
100.038	55.430
100.068	55.431
100.098	55.431
100.129	55.432
100.159	55.432
100.189	55.432
100.219	55.432
100.249	55.432
100.280	55.434
100.310	55.435
100.340	55.436
100.370	55.436
100.400	55.437
100.430	55.437
100.461	55.437
100.491	55.437
100.521	55.437
100.551	55.437
100.581	55.437
100.612	55.437
100.642	55.438
100.672	55.439
100.702	55.440
100.732	55.441
100.762	55.441
100.793	55.441
100.823	55.442
100.853	55.442
100.883	55.443
100.913	55.443
100.944	55.443
100.974	55.443
101.004	55.444
101.034	55.444
101.064	55.445
101.094	55.445
101.125	55.446
101.155	55.446
101.185	55.446
101.215	55.446
101.245	55.447
101.276	55.447
101.306	55.447
101.336	55.448
101.366	55.448
101.396	55.448
101.427	55.448
101.457	55.448
101.487	55.448
101.517	55.449
101.547	55.449
101.577	55.449
101.608	55.449
101.638	55.450
101.668	55.450
101.698	55.450
101.728	55.450
101.759	55.450
101.789	55.451
101.819	55.451
101.849	55.452
101.879	55.452
101.909	55.452
101.940	55.452
101.970	55.452
102.000	55.452
102.030	55.453
102.060	55.453
102.091	55.454
102.121	55.454
102.151	55.455
102.181	55.456
102.211	55.456
102.241	55.456
102.272	55.457
102.302	55.458
102.332	55.458
102.362	55.459
102.392	55.460
102.423	55.460
102.453	55.461
102.483	55.461
102.513	55.462
102.543	55.462
102.573	55.464
102.604	55.465
102.634	55.466
102.664	55.467
102.694	55.469
102.724	55.470
102.755	55.470
102.785	55.471
102.815	55.471
102.845	55.471
102.875	55.472
102.906	55.472
102.936	55.473
102.966	55.473
102.996	55.473
103.026	55.473
103.056	55.474
103.087	55.475
103.117	55.476
103.147	55.477
103.177	55.478
103.207	55.479
103.237	55.481
103.268	55.481
103.298	55.481
103.328	55.482
103.358	55.482
103.388	55.484
103.419	55.485
103.449	55.486
103.479	55.486
103.509	55.486
103.539	55.486
103.570	55.490
103.600	55.490
103.630	55.491
103.660	55.491
103.690	55.491
103.720	55.491
103.751	55.491
103.781	55.492
103.811	55.493
103.841	55.494
103.871	55.495
103.902	55.495
103.932	55.496
103.962	55.497
103.992	55.497
104.022	55.498
104.052	55.498
104.083	55.498
104.113	55.499
104.143	55.499
104.173	55.499
104.203	55.499
104.234	55.500
104.264	55.500
104.294	55.502
104.324	55.503
104.354	55.504
104.384	55.504
104.415	55.508
104.445	55.513
104.475	55.514
104.505	55.514
104.535	55.515
104.566	55.515
104.596	55.516
104.626	55.520
104.656	55.521
104.686	55.521
104.716	55.522
104.747	55.524
104.777	55.524
104.807	55.525
104.837	55.526
104.867	55.526
104.898	55.526
104.928	55.527
104.958	55.528
104.988	55.531
105.018	55.531
105.049	55.532
105.079	55.532
105.109	55.533
105.139	55.533
105.169	55.533
105.199	55.534
105.230	55.534
105.260	55.535
105.290	55.535
105.320	55.536
105.350	55.536
105.381	55.536
105.411	55.537
105.441	55.538
105.471	55.539
105.501	55.540
105.531	55.540
105.562	55.540
105.592	55.540
105.622	55.541
105.652	55.541
105.682	55.541
105.713	55.541
105.743	55.542
105.773	55.542
105.803	55.542
105.833	55.542
105.863	55.542
105.894	55.542
105.924	55.542
105.954	55.542
105.984	55.543
106.014	55.544
106.045	55.546
106.075	55.547
106.105	55.547
106.135	55.548
106.165	55.549
106.196	55.549
106.226	55.549
106.256	55.551
106.286	55.551
106.316	55.551
106.346	55.550
106.377	55.550
106.407	55.552
106.437	55.552
106.467	55.552
106.497	55.552
106.528	55.553
106.558	55.553
106.588	55.553
106.618	55.554
106.648	55.555
106.679	55.557
106.709	55.558
106.739	55.559
106.769	55.559
106.799	55.559
106.830	55.559
106.860	55.560
106.890	55.560
106.920	55.561
106.950	55.561
106.981	55.561
107.011	55.561
107.041	55.560
107.071	55.561
107.101	55.561
107.132	55.561
107.162	55.562
107.192	55.562
107.222	55.563
107.252	55.563
107.283	55.565
107.313	55.565
107.343	55.566
107.373	55.566
107.403	55.567
107.434	55.567
107.464	55.567
107.494	55.567
107.524	55.568
107.554	55.568
107.584	55.569
107.615	55.569
107.645	55.570
107.675	55.570
107.705	55.570
107.735	55.571
107.766	55.571
107.796	55.572
107.826	55.572
107.856	55.572
107.886	55.573
107.917	55.573
107.947	55.573
107.977	55.574
108.007	55.576
108.037	55.576
108.068	55.577
108.098	55.577
108.128	55.577
108.158	55.577
108.188	55.578
108.219	55.578
108.249	55.578
108.279	55.578
108.309	55.578
108.339	55.578
108.370	55.579
108.400	55.579
108.430	55.579
108.460	55.579
108.490	55.579
108.520	55.579
108.551	55.579
108.581	55.580
108.611	55.580
108.641	55.580
108.671	55.580
108.702	55.581
108.732	55.581
108.762	55.581
108.792	55.581
108.822	55.583
108.853	55.583
108.883	55.584
108.913	55.584
108.943	55.585
108.973	55.585
109.004	55.585
109.034	55.585
109.064	55.585
109.094	55.585
109.124	55.585
109.154	55.586
109.185	55.586
109.215	55.586
109.245	55.586
109.275	55.586
109.305	55.587
109.336	55.587
109.366	55.587
109.396	55.587
109.426	55.592
109.456	55.604
109.487	55.605
109.517	55.606
109.547	55.606
109.577	55.606
109.607	55.607
109.638	55.607
109.668	55.607
109.698	55.608
109.728	55.608
109.758	55.608
109.788	55.609
109.819	55.609
109.849	55.609
109.879	55.609
109.909	55.611
109.939	55.612
109.970	55.612
110.000	55.613
110.030	55.613
110.060	55.613
110.090	55.613
110.120	55.613
110.151	55.613
110.181	55.614
110.211	55.614
110.241	55.614
110.271	55.614
110.302	55.614
110.332	55.614
110.362	55.615
110.392	55.615
110.422	55.615
110.452	55.615
110.483	55.616
110.513	55.616
110.543	55.616
110.573	55.616
110.603	55.617
110.634	55.617
110.664	55.618
110.694	55.619
110.724	55.619
110.754	55.619
110.784	55.620
110.815	55.621
110.845	55.622
110.875	55.623
110.905	55.623
110.935	55.624
110.966	55.650
110.996	55.726
111.026	55.734
111.056	55.736
111.086	55.738
111.116	55.740
111.147	55.742
111.177	55.743
111.207	55.744
111.237	55.744
111.267	55.746
111.298	55.747
111.328	55.748
111.358	55.749
111.388	55.750
111.418	55.751
111.449	55.752
111.479	55.753
111.509	55.754
111.539	55.756
111.569	55.757
111.599	55.757
111.630	55.758
111.660	55.759
111.690	55.759
111.720	55.760
111.750	55.761
111.781	55.763
111.811	55.764
111.841	55.765
111.871	55.766
111.901	55.767
111.932	55.768
111.962	55.768
111.992	55.769
112.022	55.770
112.052	55.770
112.083	55.771
112.113	55.773
112.143	55.774
112.173	55.774
112.203	55.775
112.234	55.776
112.264	55.777
112.294	55.778
112.324	55.778
112.354	55.779
112.384	55.779
112.415	55.780
112.445	55.780
112.475	55.782
112.505	55.782
112.535	55.782
112.566	55.782
112.596	55.783
112.626	55.785
112.656	55.786
112.686	55.787
112.717	55.788
112.747	55.789
112.777	55.789
112.807	55.789
112.837	55.789
112.868	55.790
112.898	55.790
112.928	55.790
112.958	55.790
112.988	55.791
113.019	55.791
113.049	55.791
113.079	55.792
113.109	55.793
113.139	55.793
113.170	55.793
113.200	55.793
113.230	55.794
113.260	55.795
113.290	55.795
113.321	55.796
113.351	55.796
113.381	55.798
113.411	55.798
113.441	55.799
113.471	55.799
113.502	55.800
113.532	55.800
113.562	55.801
113.592	55.801
113.622	55.801
113.653	55.802
113.683	55.804
113.713	55.804
113.743	55.804
113.773	55.804
113.803	55.804
113.834	55.805
113.864	55.806
113.894	55.806
113.924	55.807
113.954	55.807
113.985	55.808
114.015	55.808
114.045	55.809
114.075	55.809
114.105	55.809
114.135	55.809
114.166	55.810
114.196	55.810
114.226	55.810
114.256	55.811
114.286	55.811
114.317	55.811
114.347	55.811
114.377	55.811
114.407	55.812
114.437	55.812
114.467	55.812
114.498	55.812
114.528	55.812
114.558	55.813
114.588	55.813
114.618	55.813
114.649	55.813
114.679	55.814
114.709	55.814
114.739	55.815
114.769	55.815
114.800	55.815
114.830	55.815
114.860	55.816
114.890	55.816
114.920	55.816
114.950	55.816
114.981	55.817
115.011	55.817
115.041	55.817
115.071	55.817
115.101	55.818
115.132	55.818
115.162	55.818
115.192	55.819
115.222	55.819
115.252	55.819
115.282	55.819
115.313	55.819
115.343	55.819
115.373	55.819
115.403	55.820
115.433	55.820
115.464	55.820
115.494	55.820
115.524	55.821
115.554	55.821
115.584	55.821
115.614	55.821
115.645	55.821
115.675	55.821
115.705	55.821
115.735	55.821
115.765	55.822
115.796	55.822
115.826	55.823
115.856	55.824
115.886	55.824
115.916	55.825
115.946	55.825
115.977	55.825
116.007	55.826
116.037	55.826
116.067	55.826
116.097	55.827
116.128	55.827
116.158	55.828
116.188	55.829
116.218	55.829
116.248	55.830
116.278	55.830
116.309	55.830
116.339	55.831
116.369	55.831
116.399	55.831
116.429	55.832
116.460	55.833
116.490	55.833
116.520	55.833
116.550	55.834
116.580	55.834
116.610	55.834
116.641	55.835
116.671	55.837
116.701	55.838
116.731	55.838
116.761	55.838
116.792	55.839
116.822	55.839
116.852	55.839
116.882	55.840
116.912	55.840
116.942	55.841
116.973	55.841
117.003	55.841
117.033	55.841
117.063	55.841
117.093	55.842
117.124	55.842
117.154	55.842
117.184	55.843
117.214	55.843
117.244	55.843
117.274	55.843
117.305	55.843
117.335	55.843
117.365	55.843
117.395	55.843
117.425	55.844
117.456	55.844
117.486	55.844
117.516	55.844
117.546	55.845
117.576	55.845
117.606	55.845
117.637	55.845
117.667	55.845
117.697	55.846
117.727	55.846
117.757	55.846
117.788	55.846
117.818	55.846
117.848	55.847
117.878	55.847
117.908	55.847
117.938	55.847
117.969	55.848
117.999	55.849
118.029	55.849
118.059	55.850
118.089	55.850
118.119	55.850
118.150	55.850
118.180	55.851
118.210	55.851
118.240	55.851
118.270	55.853
118.301	55.855
118.331	55.857
118.361	55.857
118.391	55.858
118.421	55.858
118.452	55.858
118.482	55.858
118.512	55.858
118.542	55.860
118.572	55.860
118.602	55.860
118.633	55.860
118.663	55.861
118.693	55.861
118.723	55.861
118.753	55.861
118.784	55.861
118.814	55.862
118.844	55.862
118.874	55.862
118.904	55.863
118.934	55.863
118.965	55.864
118.995	55.864
119.025	55.864
119.055	55.864
119.085	55.866
119.116	55.866
119.146	55.867
119.176	55.867
119.206	55.867
119.236	55.867
119.266	55.867
119.297	55.867
119.327	55.868
119.357	55.868
119.387	55.868
119.417	55.868
119.447	55.869
119.478	55.869
119.508	55.870
119.538	55.869
119.568	55.869
119.598	55.870
119.629	55.871
119.659	55.871
119.689	55.872
119.719	55.872
119.749	55.872
119.780	55.872
119.810	55.873
119.840	55.873
119.870	55.873
119.900	55.874
119.930	55.874
119.961	55.874
119.991	55.874
120.021	55.874
120.051	55.874
120.081	55.875
120.112	55.875
120.142	55.875
120.172	55.875
120.202	55.876
120.232	55.876
120.262	55.876
120.293	55.877
120.323	55.877
120.353	55.877
120.383	55.877
120.413	55.877
120.444	55.878
120.474	55.878
120.504	55.879
120.534	55.879
120.564	55.879
120.594	55.879
120.625	55.880
120.655	55.879
120.685	55.880
120.715	55.880
120.745	55.880
120.776	55.880
120.806	55.880
120.836	55.881
120.866	55.881
120.896	55.881
120.926	55.881
120.957	55.881
120.987	55.882
121.017	55.882
121.047	55.882
121.077	55.882
121.108	55.883
121.138	55.887
121.168	55.888
121.198	55.888
121.228	55.888
121.258	55.888
121.289	55.889
121.319	55.890
121.349	55.890
121.379	55.891
121.409	55.890
121.440	55.892
121.470	55.891
121.500	55.891
121.530	55.891
121.560	55.893
121.590	55.893
121.621	55.894
121.651	55.894
121.681	55.894
121.711	55.894
121.741	55.894
121.772	55.895
121.802	55.896
121.832	55.896
121.862	55.897
121.892	55.897
121.922	55.897
121.953	55.898
121.983	55.898
122.013	55.898
122.043	55.898
122.073	55.899
122.104	55.900
122.134	55.900
122.164	55.900
122.194	55.900
122.224	55.901
122.255	55.902
122.285	55.902
122.315	55.902
122.345	55.902
122.375	55.902
122.405	55.902
122.436	55.902
122.466	55.902
122.496	55.902
122.526	55.903
122.556	55.903
122.587	55.903
122.617	55.903
122.647	55.903
122.677	55.904
122.707	55.904
122.737	55.904
122.768	55.906
122.798	55.906
122.828	55.906
122.858	55.907
122.888	55.908
122.919	55.908
122.949	55.909
122.979	55.909
123.009	55.910
123.039	55.910
123.069	55.911
123.100	55.911
123.130	55.911
123.160	55.911
123.190	55.911
123.220	55.911
123.251	55.911
123.281	55.912
123.311	55.912
123.341	55.912
123.371	55.912
123.401	55.912
123.432	55.912
123.462	55.913
123.492	55.914
123.522	55.915
123.552	55.916
123.583	55.917
123.613	55.917
123.643	55.918

